[nm];[A];
;Sample 1;
200.0;8.0000
200.1;8.0000
200.2;2.3838
200.3;1.8821
200.4;8.0000
200.5;1.4973
200.6;1.5169
200.7;8.0000
200.8;3.0435
200.9;1.9285
201.0;2.3559
201.1;2.2881
201.2;8.0000
201.3;2.5520
201.4;2.0348
201.5;2.2943
201.6;8.0000
201.7;8.0000
201.8;8.0000
201.9;8.0000
202.0;8.0000
202.1;2.5851
202.2;1.9148
202.3;2.6011
202.4;8.0000
202.5;1.8338
202.6;8.0000
202.7;8.0000
202.8;8.0000
202.9;4.6970
203.0;8.0000
203.1;2.2507
203.2;4.1625
203.3;8.0000
203.4;8.0000
203.5;8.0000
203.6;8.0000
203.7;8.0000
203.8;2.6858
203.9;8.0000
204.0;3.3231
204.1;3.1386
204.2;2.5845
204.3;3.2664
204.4;8.0000
204.5;2.7362
204.6;5.3271
204.7;8.0000
204.8;8.0000
204.9;8.0000
205.0;2.5957
205.1;2.4751
205.2;3.2784
205.3;8.0000
205.4;3.6604
205.5;8.0000
205.6;8.0000
205.7;8.0000
205.8;4.5959
205.9;3.6026
206.0;8.0000
206.1;8.0000
206.2;3.2993
206.3;3.3492
206.4;2.9527
206.5;8.0000
206.6;3.0907
206.7;8.0000
206.8;3.3665
206.9;8.0000
207.0;8.0000
207.1;3.0967
207.2;8.0000
207.3;8.0000
207.4;8.0000
207.5;8.0000
207.6;8.0000
207.7;3.1813
207.8;3.5947
207.9;3.2840
208.0;3.0720
208.1;2.7659
208.2;3.4777
208.3;8.0000
208.4;3.0478
208.5;3.3037
208.6;8.0000
208.7;3.1103
208.8;8.0000
208.9;3.7266
209.0;8.0000
209.1;8.0000
209.2;3.0945
209.3;3.5992
209.4;3.3528
209.5;8.0000
209.6;8.0000
209.7;3.2009
209.8;3.1542
209.9;3.8357
210.0;3.4785
210.1;3.0321
210.2;3.1787
210.3;8.0000
210.4;8.0000
210.5;8.0000
210.6;3.2773
210.7;8.0000
210.8;8.0000
210.9;8.0000
211.0;3.2464
211.1;3.6931
211.2;4.2404
211.3;8.0000
211.4;3.3125
211.5;3.2091
211.6;4.4610
211.7;3.6594
211.8;8.0000
211.9;4.7932
212.0;8.0000
212.1;8.0000
212.2;3.3920
212.3;8.0000
212.4;3.0663
212.5;3.5486
212.6;3.4456
212.7;8.0000
212.8;8.0000
212.9;8.0000
213.0;8.0000
213.1;8.0000
213.2;8.0000
213.3;3.8261
213.4;3.4249
213.5;8.0000
213.6;8.0000
213.7;8.0000
213.8;3.1792
213.9;4.0341
214.0;8.0000
214.1;8.0000
214.2;8.0000
214.3;4.8109
214.4;5.3614
214.5;3.5186
214.6;8.0000
214.7;4.0783
214.8;4.4305
214.9;8.0000
215.0;8.0000
215.1;3.5168
215.2;8.0000
215.3;3.7080
215.4;3.7908
215.5;4.4725
215.6;8.0000
215.7;3.2490
215.8;3.5055
215.9;3.7053
216.0;8.0000
216.1;4.1956
216.2;8.0000
216.3;4.0056
216.4;3.6038
216.5;8.0000
216.6;3.3037
216.7;8.0000
216.8;3.9118
216.9;8.0000
217.0;4.3672
217.1;3.4412
217.2;8.0000
217.3;8.0000
217.4;4.0496
217.5;4.7177
217.6;8.0000
217.7;8.0000
217.8;3.4877
217.9;3.9693
218.0;3.9106
218.1;4.3237
218.2;8.0000
218.3;4.3964
218.4;8.0000
218.5;3.8799
218.6;4.4608
218.7;8.0000
218.8;3.6320
218.9;3.4668
219.0;4.4133
219.1;4.1301
219.2;4.3318
219.3;8.0000
219.4;4.1307
219.5;3.4867
219.6;5.3152
219.7;8.0000
219.8;8.0000
219.9;4.1746
220.0;3.5225
220.1;3.7685
220.2;3.6429
220.3;3.6662
220.4;4.0139
220.5;8.0000
220.6;3.7993
220.7;4.7945
220.8;4.6593
220.9;8.0000
221.0;3.6717
221.1;3.8253
221.2;8.0000
221.3;4.0982
221.4;8.0000
221.5;4.4901
221.6;3.5299
221.7;3.7811
221.8;3.6120
221.9;8.0000
222.0;8.0000
222.1;3.6886
222.2;8.0000
222.3;8.0000
222.4;3.6793
222.5;4.0151
222.6;3.8346
222.7;5.1609
222.8;8.0000
222.9;8.0000
223.0;3.9398
223.1;3.8268
223.2;4.1075
223.3;8.0000
223.4;8.0000
223.5;3.4933
223.6;8.0000
223.7;3.8829
223.8;3.7785
223.9;8.0000
224.0;8.0000
224.1;3.9982
224.2;8.0000
224.3;8.0000
224.4;5.5250
224.5;8.0000
224.6;5.0337
224.7;4.1067
224.8;8.0000
224.9;4.0469
225.0;8.0000
225.1;8.0000
225.2;4.6225
225.3;8.0000
225.4;4.0763
225.5;8.0000
225.6;4.2367
225.7;4.9338
225.8;8.0000
225.9;4.0542
226.0;4.1085
226.1;4.1142
226.2;8.0000
226.3;8.0000
226.4;8.0000
226.5;3.7155
226.6;8.0000
226.7;3.9578
226.8;4.5961
226.9;3.8615
227.0;8.0000
227.1;8.0000
227.2;5.1407
227.3;3.8748
227.4;8.0000
227.5;8.0000
227.6;8.0000
227.7;8.0000
227.8;4.0908
227.9;3.8643
228.0;8.0000
228.1;8.0000
228.2;8.0000
228.3;8.0000
228.4;8.0000
228.5;4.4012
228.6;4.0240
228.7;3.3768
228.8;8.0000
228.9;3.7441
229.0;8.0000
229.1;3.8581
229.2;4.5310
229.3;8.0000
229.4;3.9130
229.5;8.0000
229.6;8.0000
229.7;4.0782
229.8;4.0770
229.9;3.9048
230.0;8.0000
230.1;3.7751
230.2;3.8954
230.3;8.0000
230.4;8.0000
230.5;8.0000
230.6;4.0560
230.7;8.0000
230.8;8.0000
230.9;4.6084
231.0;8.0000
231.1;3.7741
231.2;3.8917
231.3;4.1990
231.4;8.0000
231.5;8.0000
231.6;8.0000
231.7;4.1310
231.8;8.0000
231.9;8.0000
232.0;3.7790
232.1;5.0722
232.2;3.9084
232.3;4.1365
232.4;4.3756
232.5;8.0000
232.6;4.1596
232.7;3.6378
232.8;8.0000
232.9;4.2365
233.0;4.3377
233.1;4.0487
233.2;8.0000
233.3;8.0000
233.4;3.8716
233.5;4.3327
233.6;8.0000
233.7;4.8435
233.8;3.5995
233.9;4.6799
234.0;8.0000
234.1;3.7679
234.2;8.0000
234.3;3.8654
234.4;3.8894
234.5;3.9680
234.6;8.0000
234.7;8.0000
234.8;8.0000
234.9;8.0000
235.0;8.0000
235.1;8.0000
235.2;8.0000
235.3;4.2895
235.4;4.2753
235.5;3.9522
235.6;8.0000
235.7;8.0000
235.8;8.0000
235.9;4.0746
236.0;3.8509
236.1;8.0000
236.2;8.0000
236.3;4.1916
236.4;3.7001
236.5;3.6610
236.6;8.0000
236.7;3.4776
236.8;8.0000
236.9;8.0000
237.0;3.9420
237.1;8.0000
237.2;8.0000
237.3;8.0000
237.4;8.0000
237.5;4.3832
237.6;4.0216
237.7;8.0000
237.8;8.0000
237.9;8.0000
238.0;3.9070
238.1;3.9063
238.2;8.0000
238.3;3.9273
238.4;8.0000
238.5;8.0000
238.6;4.2292
238.7;3.8285
238.8;4.0772
238.9;4.4835
239.0;4.4124
239.1;4.6761
239.2;8.0000
239.3;8.0000
239.4;5.1764
239.5;8.0000
239.6;8.0000
239.7;3.7116
239.8;4.0867
239.9;8.0000
240.0;8.0000
240.1;8.0000
240.2;8.0000
240.3;8.0000
240.4;8.0000
240.5;8.0000
240.6;4.2257
240.7;3.8551
240.8;4.7436
240.9;3.8507
241.0;8.0000
241.1;3.9510
241.2;3.8845
241.3;8.0000
241.4;4.4325
241.5;4.1144
241.6;3.8706
241.7;8.0000
241.8;3.8900
241.9;8.0000
242.0;4.6564
242.1;3.9457
242.2;3.9799
242.3;4.4317
242.4;3.8131
242.5;8.0000
242.6;4.0794
242.7;4.2867
242.8;8.0000
242.9;8.0000
243.0;6.0354
243.1;4.1223
243.2;8.0000
243.3;8.0000
243.4;8.0000
243.5;3.8323
243.6;4.6499
243.7;3.6922
243.8;3.9734
243.9;8.0000
244.0;5.1236
244.1;4.7175
244.2;4.1798
244.3;8.0000
244.4;8.0000
244.5;3.9112
244.6;4.3002
244.7;4.3209
244.8;8.0000
244.9;4.5221
245.0;8.0000
245.1;3.7686
245.2;4.4025
245.3;8.0000
245.4;8.0000
245.5;4.0486
245.6;8.0000
245.7;8.0000
245.8;3.7888
245.9;4.5726
246.0;8.0000
246.1;8.0000
246.2;4.1518
246.3;3.9475
246.4;4.4237
246.5;4.3930
246.6;3.8439
246.7;3.6507
246.8;4.3829
246.9;8.0000
247.0;3.9615
247.1;3.9013
247.2;3.3955
247.3;4.1619
247.4;3.7630
247.5;4.1829
247.6;3.7350
247.7;3.3801
247.8;4.4081
247.9;4.1152
248.0;4.0666
248.1;8.0000
248.2;8.0000
248.3;3.6801
248.4;3.6997
248.5;8.0000
248.6;8.0000
248.7;8.0000
248.8;4.5398
248.9;8.0000
249.0;3.9741
249.1;3.8986
249.2;3.9188
249.3;3.6865
249.4;3.5273
249.5;3.8031
249.6;3.8801
249.7;8.0000
249.8;3.8457
249.9;4.6565
250.0;3.5214
250.1;4.1306
250.2;3.7109
250.3;8.0000
250.4;8.0000
250.5;3.8033
250.6;8.0000
250.7;8.0000
250.8;3.7718
250.9;3.6623
251.0;4.0929
251.1;3.7231
251.2;8.0000
251.3;8.0000
251.4;8.0000
251.5;8.0000
251.6;3.6591
251.7;8.0000
251.8;4.5007
251.9;3.6970
252.0;4.1289
252.1;3.6130
252.2;4.0884
252.3;8.0000
252.4;3.2981
252.5;8.0000
252.6;3.8517
252.7;3.6095
252.8;4.6754
252.9;3.6155
253.0;8.0000
253.1;3.9958
253.2;3.3931
253.3;3.8775
253.4;4.4340
253.5;3.4783
253.6;3.8001
253.7;8.0000
253.8;3.6100
253.9;8.0000
254.0;3.6170
254.1;3.4189
254.2;3.5022
254.3;3.9130
254.4;3.5231
254.5;8.0000
254.6;3.9336
254.7;8.0000
254.8;3.9066
254.9;3.5945
255.0;8.0000
255.1;8.0000
255.2;8.0000
255.3;3.5759
255.4;8.0000
255.5;8.0000
255.6;3.7295
255.7;4.1394
255.8;8.0000
255.9;8.0000
256.0;4.1900
256.1;3.6600
256.2;8.0000
256.3;4.3692
256.4;4.1366
256.5;3.5384
256.6;3.5119
256.7;3.5940
256.8;3.7288
256.9;8.0000
257.0;3.6478
257.1;3.3662
257.2;8.0000
257.3;8.0000
257.4;3.9057
257.5;4.4431
257.6;4.3139
257.7;8.0000
257.8;3.9087
257.9;3.8544
258.0;3.6538
258.1;3.8982
258.2;3.6548
258.3;3.8351
258.4;8.0000
258.5;3.4335
258.6;3.4087
258.7;3.6619
258.8;3.5424
258.9;8.0000
259.0;3.6121
259.1;3.5838
259.2;4.0346
259.3;3.8713
259.4;8.0000
259.5;3.6805
259.6;3.9460
259.7;3.3086
259.8;3.9416
259.9;8.0000
260.0;8.0000
260.1;3.6965
260.2;3.6047
260.3;3.7865
260.4;4.3434
260.5;8.0000
260.6;3.6278
260.7;3.7844
260.8;8.0000
260.9;3.7483
261.0;3.6222
261.1;3.3912
261.2;8.0000
261.3;3.8686
261.4;4.1007
261.5;3.6677
261.6;3.7812
261.7;8.0000
261.8;4.1742
261.9;3.5342
262.0;3.7021
262.1;3.7997
262.2;8.0000
262.3;8.0000
262.4;8.0000
262.5;3.4696
262.6;8.0000
262.7;8.0000
262.8;3.7935
262.9;3.5694
263.0;3.2549
263.1;8.0000
263.2;4.0365
263.3;4.0971
263.4;8.0000
263.5;8.0000
263.6;4.5642
263.7;3.3034
263.8;3.9756
263.9;4.1518
264.0;3.6844
264.1;3.5396
264.2;8.0000
264.3;4.0049
264.4;8.0000
264.5;3.3571
264.6;3.4988
264.7;3.4810
264.8;3.3123
264.9;8.0000
265.0;8.0000
265.1;3.9753
265.2;8.0000
265.3;3.7149
265.4;8.0000
265.5;8.0000
265.6;3.5991
265.7;4.3164
265.8;4.2409
265.9;3.4713
266.0;3.5536
266.1;3.7839
266.2;4.5022
266.3;3.8810
266.4;3.9390
266.5;8.0000
266.6;8.0000
266.7;3.7273
266.8;3.9678
266.9;8.0000
267.0;4.3627
267.1;3.8917
267.2;3.4646
267.3;3.2790
267.4;3.6106
267.5;3.6148
267.6;3.7608
267.7;3.2316
267.8;3.8616
267.9;3.4981
268.0;8.0000
268.1;3.8785
268.2;8.0000
268.3;3.5219
268.4;3.4125
268.5;4.4721
268.6;3.5453
268.7;3.5157
268.8;3.9051
268.9;8.0000
269.0;3.5338
269.1;4.2560
269.2;8.0000
269.3;4.3400
269.4;8.0000
269.5;5.0877
269.6;3.3905
269.7;8.0000
269.8;8.0000
269.9;4.6917
270.0;8.0000
270.1;8.0000
270.2;3.4975
270.3;3.2318
270.4;3.3539
270.5;8.0000
270.6;3.5813
270.7;8.0000
270.8;8.0000
270.9;3.4012
271.0;8.0000
271.1;8.0000
271.2;8.0000
271.3;8.0000
271.4;4.1516
271.5;3.5814
271.6;4.6025
271.7;3.6180
271.8;8.0000
271.9;8.0000
272.0;3.6742
272.1;8.0000
272.2;3.4762
272.3;3.5657
272.4;8.0000
272.5;8.0000
272.6;8.0000
272.7;8.0000
272.8;8.0000
272.9;3.6634
273.0;8.0000
273.1;8.0000
273.2;3.4814
273.3;5.2114
273.4;3.6973
273.5;8.0000
273.6;3.4466
273.7;4.0112
273.8;3.9684
273.9;3.6034
274.0;3.4907
274.1;3.6310
274.2;8.0000
274.3;8.0000
274.4;8.0000
274.5;8.0000
274.6;3.4225
274.7;3.4346
274.8;8.0000
274.9;8.0000
275.0;8.0000
275.1;3.4735
275.2;8.0000
275.3;8.0000
275.4;8.0000
275.5;5.0326
275.6;8.0000
275.7;3.6472
275.8;3.9561
275.9;3.1953
276.0;8.0000
276.1;8.0000
276.2;3.6762
276.3;3.4509
276.4;4.3209
276.5;4.3979
276.6;3.8845
276.7;8.0000
276.8;4.1312
276.9;8.0000
277.0;8.0000
277.1;4.7033
277.2;8.0000
277.3;8.0000
277.4;8.0000
277.5;3.2962
277.6;4.9844
277.7;8.0000
277.8;8.0000
277.9;8.0000
278.0;4.3932
278.1;3.3280
278.2;3.4928
278.3;3.3993
278.4;4.3472
278.5;8.0000
278.6;3.3761
278.7;3.7963
278.8;4.5668
278.9;8.0000
279.0;8.0000
279.1;8.0000
279.2;8.0000
279.3;8.0000
279.4;8.0000
279.5;3.4735
279.6;4.3868
279.7;8.0000
279.8;8.0000
279.9;8.0000
280.0;8.0000
280.1;8.0000
280.2;3.3209
280.3;4.0090
280.4;8.0000
280.5;3.3175
280.6;3.7655
280.7;8.0000
280.8;4.1905
280.9;8.0000
281.0;8.0000
281.1;3.4052
281.2;3.7428
281.3;8.0000
281.4;8.0000
281.5;8.0000
281.6;8.0000
281.7;3.3617
281.8;8.0000
281.9;3.8071
282.0;3.7420
282.1;3.6219
282.2;3.7607
282.3;3.5408
282.4;3.3191
282.5;3.3128
282.6;3.2864
282.7;3.2234
282.8;8.0000
282.9;4.0241
283.0;3.5415
283.1;3.2805
283.2;3.7124
283.3;4.1852
283.4;3.3736
283.5;3.9380
283.6;3.4665
283.7;3.7291
283.8;8.0000
283.9;3.6696
284.0;8.0000
284.1;8.0000
284.2;3.9457
284.3;3.3149
284.4;3.4227
284.5;3.7720
284.6;8.0000
284.7;3.4418
284.8;8.0000
284.9;8.0000
285.0;3.5836
285.1;3.1645
285.2;3.5723
285.3;8.0000
285.4;8.0000
285.5;3.1990
285.6;3.5605
285.7;3.9411
285.8;8.0000
285.9;8.0000
286.0;3.6204
286.1;3.0124
286.2;4.2852
286.3;3.0482
286.4;3.5215
286.5;8.0000
286.6;3.9892
286.7;8.0000
286.8;3.0924
286.9;3.8914
287.0;4.3676
287.1;3.8030
287.2;3.4133
287.3;3.3168
287.4;3.9078
287.5;3.7400
287.6;3.3774
287.7;3.2168
287.8;8.0000
287.9;4.5659
288.0;8.0000
288.1;3.1840
288.2;4.0350
288.3;3.5649
288.4;3.1821
288.5;3.1718
288.6;8.0000
288.7;4.2505
288.8;3.3591
288.9;3.8073
289.0;3.3148
289.1;4.8619
289.2;4.5340
289.3;3.6384
289.4;4.4409
289.5;3.5930
289.6;8.0000
289.7;3.8396
289.8;4.2437
289.9;3.1603
290.0;2.9498
290.1;3.0682
290.2;3.9158
290.3;3.4603
290.4;8.0000
290.5;8.0000
290.6;3.4501
290.7;3.9618
290.8;8.0000
290.9;3.4274
291.0;8.0000
291.1;8.0000
291.2;3.9741
291.3;3.6913
291.4;3.5849
291.5;3.3406
291.6;3.1820
291.7;3.4390
291.8;8.0000
291.9;3.3117
292.0;4.0213
292.1;3.2735
292.2;8.0000
292.3;3.5509
292.4;3.3475
292.5;3.8475
292.6;8.0000
292.7;3.1122
292.8;8.0000
292.9;8.0000
293.0;4.3100
293.1;3.3028
293.2;3.7487
293.3;8.0000
293.4;3.2354
293.5;3.2771
293.6;3.2403
293.7;3.2941
293.8;3.3451
293.9;3.2262
294.0;3.9463
294.1;8.0000
294.2;3.4385
294.3;8.0000
294.4;3.6741
294.5;3.6783
294.6;2.9132
294.7;8.0000
294.8;3.1882
294.9;3.2444
295.0;3.8330
295.1;3.2880
295.2;4.7221
295.3;3.0761
295.4;3.2075
295.5;3.1620
295.6;8.0000
295.7;3.3695
295.8;3.1073
295.9;3.3820
296.0;8.0000
296.1;8.0000
296.2;3.4440
296.3;8.0000
296.4;3.3498
296.5;3.7606
296.6;2.9784
296.7;8.0000
296.8;3.1914
296.9;5.5618
297.0;3.2908
297.1;3.4010
297.2;3.2023
297.3;3.0565
297.4;3.4711
297.5;3.0730
297.6;4.0735
297.7;3.1416
297.8;8.0000
297.9;3.7567
298.0;8.0000
298.1;3.4293
298.2;3.2015
298.3;3.1578
298.4;3.4913
298.5;3.0299
298.6;3.3096
298.7;3.3198
298.8;3.6061
298.9;3.2959
299.0;3.1260
299.1;8.0000
299.2;4.3482
299.3;2.8506
299.4;3.9307
299.5;3.3371
299.6;3.1630
299.7;8.0000
299.8;3.9075
299.9;3.5882
300.0;3.1826
300.1;3.4110
300.2;3.0483
300.3;8.0000
300.4;3.7785
300.5;8.0000
300.6;3.3024
300.7;3.7866
300.8;3.4537
300.9;8.0000
301.0;3.7215
301.1;8.0000
301.2;3.1378
301.3;3.0811
301.4;3.5479
301.5;3.1405
301.6;4.1936
301.7;3.0274
301.8;3.5622
301.9;8.0000
302.0;3.4857
302.1;3.3296
302.2;5.0630
302.3;3.4491
302.4;3.2270
302.5;8.0000
302.6;8.0000
302.7;3.6289
302.8;8.0000
302.9;3.7506
303.0;2.9807
303.1;8.0000
303.2;3.3716
303.3;3.3260
303.4;3.0197
303.5;8.0000
303.6;3.1680
303.7;3.9720
303.8;3.7632
303.9;2.9855
304.0;3.7952
304.1;3.3325
304.2;3.8789
304.3;8.0000
304.4;2.8852
304.5;3.8529
304.6;3.6070
304.7;3.5241
304.8;8.0000
304.9;3.1058
305.0;3.9641
305.1;3.6186
305.2;3.0773
305.3;3.2761
305.4;8.0000
305.5;4.1049
305.6;8.0000
305.7;3.9464
305.8;3.2338
305.9;3.2143
306.0;3.4447
306.1;8.0000
306.2;3.8041
306.3;8.0000
306.4;8.0000
306.5;3.8613
306.6;3.4340
306.7;8.0000
306.8;3.5381
306.9;8.0000
307.0;8.0000
307.1;3.8032
307.2;3.6428
307.3;3.5632
307.4;3.3916
307.5;3.3453
307.6;3.9278
307.7;3.4323
307.8;3.2670
307.9;2.8444
308.0;3.4534
308.1;8.0000
308.2;3.8494
308.3;8.0000
308.4;8.0000
308.5;3.2104
308.6;8.0000
308.7;3.3582
308.8;3.0980
308.9;3.1878
309.0;3.4119
309.1;3.5468
309.2;3.3918
309.3;8.0000
309.4;8.0000
309.5;5.6754
309.6;3.2665
309.7;3.5622
309.8;3.2298
309.9;3.5054
310.0;3.4705
310.1;3.2440
310.2;8.0000
310.3;3.3224
310.4;3.8235
310.5;8.0000
310.6;3.9449
310.7;3.7086
310.8;4.0877
310.9;3.5128
311.0;8.0000
311.1;3.3030
311.2;3.2112
311.3;3.5303
311.4;3.7488
311.5;3.0784
311.6;3.5850
311.7;3.2642
311.8;3.4439
311.9;4.0067
312.0;8.0000
312.1;3.0038
312.2;8.0000
312.3;2.9794
312.4;4.4508
312.5;4.8108
312.6;3.4852
312.7;8.0000
312.8;3.0218
312.9;4.4633
313.0;2.9968
313.1;8.0000
313.2;8.0000
313.3;3.6633
313.4;3.3673
313.5;8.0000
313.6;3.4492
313.7;3.0455
313.8;3.0325
313.9;3.2540
314.0;3.2130
314.1;8.0000
314.2;4.0209
314.3;8.0000
314.4;3.3998
314.5;3.3613
314.6;8.0000
314.7;3.2541
314.8;8.0000
314.9;3.0001
315.0;2.9489
315.1;4.1606
315.2;8.0000
315.3;3.1877
315.4;3.1431
315.5;4.0841
315.6;3.6422
315.7;3.4094
315.8;3.9660
315.9;3.2957
316.0;3.3638
316.1;8.0000
316.2;3.7417
316.3;3.6869
316.4;8.0000
316.5;8.0000
316.6;3.4622
316.7;3.3425
316.8;8.0000
316.9;8.0000
317.0;8.0000
317.1;8.0000
317.2;8.0000
317.3;3.0298
317.4;8.0000
317.5;3.1049
317.6;3.4696
317.7;8.0000
317.8;2.9892
317.9;8.0000
318.0;8.0000
318.1;8.0000
318.2;5.3163
318.3;3.4145
318.4;4.0903
318.5;2.9077
318.6;3.2499
318.7;3.8816
318.8;3.6270
318.9;3.3561
319.0;8.0000
319.1;3.2023
319.2;8.0000
319.3;3.8436
319.4;3.1011
319.5;3.6034
319.6;8.0000
319.7;3.2399
319.8;3.5326
319.9;3.4043
320.0;3.3489
320.1;8.0000
320.2;4.1051
320.3;3.4961
320.4;8.0000
320.5;4.5706
320.6;3.4079
320.7;8.0000
320.8;8.0000
320.9;8.0000
321.0;3.0571
321.1;8.0000
321.2;8.0000
321.3;2.6882
321.4;2.9620
321.5;8.0000
321.6;3.2379
321.7;8.0000
321.8;3.3207
321.9;8.0000
322.0;3.3375
322.1;8.0000
322.2;2.7476
322.3;3.1351
322.4;3.0630
322.5;8.0000
322.6;8.0000
322.7;8.0000
322.8;8.0000
322.9;3.2261
323.0;8.0000
323.1;8.0000
323.2;8.0000
323.3;8.0000
323.4;8.0000
323.5;3.4849
323.6;8.0000
323.7;3.8489
323.8;8.0000
323.9;3.3666
324.0;3.1904
324.1;3.4357
324.2;3.8023
324.3;3.4178
324.4;3.9254
324.5;3.6941
324.6;3.3468
324.7;8.0000
324.8;8.0000
324.9;8.0000
325.0;8.0000
325.1;3.9321
325.2;3.0549
325.3;8.0000
325.4;8.0000
325.5;8.0000
325.6;8.0000
325.7;3.8180
325.8;8.0000
325.9;3.4020
326.0;8.0000
326.1;3.1204
326.2;8.0000
326.3;3.8074
326.4;8.0000
326.5;8.0000
326.6;8.0000
326.7;8.0000
326.8;4.3811
326.9;8.0000
327.0;8.0000
327.1;3.0159
327.2;3.2524
327.3;8.0000
327.4;8.0000
327.5;3.1464
327.6;8.0000
327.7;3.2420
327.8;3.7116
327.9;3.8083
328.0;4.4826
328.1;8.0000
328.2;3.1568
328.3;8.0000
328.4;8.0000
328.5;3.5834
328.6;3.3799
328.7;8.0000
328.8;8.0000
328.9;6.4285
329.0;3.2968
329.1;8.0000
329.2;8.0000
329.3;3.3137
329.4;8.0000
329.5;8.0000
329.6;8.0000
329.7;8.0000
329.8;3.1507
329.9;8.0000
330.0;8.0000
330.1;3.4612
330.2;8.0000
330.3;8.0000
330.4;8.0000
330.5;8.0000
330.6;8.0000
330.7;8.0000
330.8;2.9649
330.9;3.3800
331.0;8.0000
331.1;3.4666
331.2;3.5065
331.3;8.0000
331.4;8.0000
331.5;4.0339
331.6;3.5318
331.7;8.0000
331.8;3.6427
331.9;8.0000
332.0;8.0000
332.1;3.6305
332.2;3.3465
332.3;8.0000
332.4;8.0000
332.5;3.2169
332.6;8.0000
332.7;3.3642
332.8;4.1636
332.9;3.5265
333.0;8.0000
333.1;4.0645
333.2;8.0000
333.3;8.0000
333.4;8.0000
333.5;8.0000
333.6;3.4322
333.7;8.0000
333.8;3.4320
333.9;3.5941
334.0;3.5184
334.1;3.7683
334.2;8.0000
334.3;3.9138
334.4;8.0000
334.5;8.0000
334.6;3.9654
334.7;3.6822
334.8;8.0000
334.9;3.8906
335.0;3.9196
335.1;4.7980
335.2;8.0000
335.3;8.0000
335.4;8.0000
335.5;8.0000
335.6;3.1011
335.7;3.1396
335.8;8.0000
335.9;8.0000
336.0;3.7119
336.1;4.3807
336.2;4.3362
336.3;3.5687
336.4;4.3067
336.5;8.0000
336.6;4.3425
336.7;8.0000
336.8;8.0000
336.9;8.0000
337.0;3.4929
337.1;3.0288
337.2;3.2760
337.3;3.1802
337.4;3.2991
337.5;3.2303
337.6;3.7878
337.7;3.3074
337.8;3.4156
337.9;3.0667
338.0;3.7488
338.1;3.1492
338.2;3.6218
338.3;3.3465
338.4;8.0000
338.5;3.6539
338.6;3.2291
338.7;3.2999
338.8;3.2161
338.9;3.0782
339.0;3.0570
339.1;3.1239
339.2;3.1820
339.3;3.1916
339.4;2.9706
339.5;2.9339
339.6;3.1506
339.7;2.9933
339.8;3.0977
339.9;2.7979
340.0;2.8498
340.1;2.7276
340.2;2.7076
340.3;2.8800
340.4;2.8431
340.5;2.7020
340.6;2.7619
340.7;2.5379
340.8;2.6564
340.9;2.5710
341.0;2.6605
341.1;2.5940
341.2;2.5239
341.3;2.6057
341.4;2.5254
341.5;2.5126
341.6;2.4562
341.7;2.4465
341.8;2.4429
341.9;2.4137
342.0;2.3727
342.1;2.3347
342.2;2.3809
342.3;2.3559
342.4;2.2756
342.5;2.2982
342.6;2.2418
342.7;2.2407
342.8;2.2015
342.9;2.2053
343.0;2.1942
343.1;2.1899
343.2;2.1815
343.3;2.1584
343.4;2.1303
343.5;2.1389
343.6;2.1492
343.7;2.0887
343.8;2.0885
343.9;2.0534
344.0;2.0598
344.1;2.0547
344.2;2.0400
344.3;2.0177
344.4;1.9787
344.5;2.0043
344.6;1.9698
344.7;1.9872
344.8;1.9715
344.9;1.9295
345.0;1.9264
345.1;1.9169
345.2;1.8963
345.3;1.9111
345.4;1.8851
345.5;1.8736
345.6;1.8691
345.7;1.8556
345.8;1.8534
345.9;1.8318
346.0;1.8268
346.1;1.8252
346.2;1.7951
346.3;1.8045
346.4;1.7895
346.5;1.7937
346.6;1.7849
346.7;1.7635
346.8;1.7522
346.9;1.7593
347.0;1.7473
347.1;1.7457
347.2;1.7373
347.3;1.7252
347.4;1.7269
347.5;1.7138
347.6;1.6890
347.7;1.7049
347.8;1.6912
347.9;1.6792
348.0;1.6872
348.1;1.6668
348.2;1.6735
348.3;1.6712
348.4;1.6586
348.5;1.6536
348.6;1.6539
348.7;1.6481
348.8;1.6407
348.9;1.6300
349.0;1.6365
349.1;1.6376
349.2;1.6176
349.3;1.6142
349.4;1.6153
349.5;1.6076
349.6;1.6011
349.7;1.5973
349.8;1.5870
349.9;1.6091
350.0;1.5864
350.1;1.5818
350.2;1.5686
350.3;1.5839
350.4;1.5750
350.5;1.5574
350.6;1.5628
350.7;1.5543
350.8;1.5598
350.9;1.5532
351.0;1.5504
351.1;1.5438
351.2;1.5454
351.3;1.5333
351.4;1.5338
351.5;1.5409
351.6;1.5352
351.7;1.5235
351.8;1.5168
351.9;1.5198
352.0;1.5078
352.1;1.5147
352.2;1.5092
352.3;1.5057
352.4;1.5027
352.5;1.5006
352.6;1.4994
352.7;1.4938
352.8;1.4904
352.9;1.4814
353.0;1.4835
353.1;1.4796
353.2;1.4761
353.3;1.4649
353.4;1.4617
353.5;1.4714
353.6;1.4602
353.7;1.4594
353.8;1.4543
353.9;1.4466
354.0;1.4510
354.1;1.4413
354.2;1.4406
354.3;1.4327
354.4;1.4327
354.5;1.4284
354.6;1.4226
354.7;1.4184
354.8;1.4166
354.9;1.4155
355.0;1.4087
355.1;1.4004
355.2;1.3998
355.3;1.3991
355.4;1.3925
355.5;1.3891
355.6;1.3808
355.7;1.3754
355.8;1.3716
355.9;1.3698
356.0;1.3611
356.1;1.3559
356.2;1.3480
356.3;1.3509
356.4;1.3432
356.5;1.3320
356.6;1.3293
356.7;1.3277
356.8;1.3285
356.9;1.3134
357.0;1.3060
357.1;1.3073
357.2;1.2979
357.3;1.2971
357.4;1.2918
357.5;1.2859
357.6;1.2861
357.7;1.2767
357.8;1.2692
357.9;1.2657
358.0;1.2617
358.1;1.2511
358.2;1.2477
358.3;1.2410
358.4;1.2337
358.5;1.2305
358.6;1.2250
358.7;1.2186
358.8;1.2118
358.9;1.2071
359.0;1.2014
359.1;1.1918
359.2;1.1841
359.3;1.1857
359.4;1.1774
359.5;1.1686
359.6;1.1644
359.7;1.1578
359.8;1.1534
359.9;1.1448
360.0;1.1396
360.1;1.1311
360.2;1.1269
360.3;1.1221
360.4;1.1172
360.5;1.1127
360.6;1.1070
360.7;1.0995
360.8;1.0918
360.9;1.0869
361.0;1.0798
361.1;1.0767
361.2;1.0684
361.3;1.0632
361.4;1.0587
361.5;1.0495
361.6;1.0478
361.7;1.0379
361.8;1.0308
361.9;1.0285
362.0;1.0202
362.1;1.0159
362.2;1.0075
362.3;1.0056
362.4;0.9984
362.5;0.9924
362.6;0.9841
362.7;0.9770
362.8;0.9727
362.9;0.9679
363.0;0.9656
363.1;0.9572
363.2;0.9502
363.3;0.9454
363.4;0.9377
363.5;0.9368
363.6;0.9284
363.7;0.9220
363.8;0.9164
363.9;0.9097
364.0;0.9030
364.1;0.8999
364.2;0.8963
364.3;0.8892
364.4;0.8845
364.5;0.8791
364.6;0.8719
364.7;0.8668
364.8;0.8638
364.9;0.8593
365.0;0.8546
365.1;0.8465
365.2;0.8401
365.3;0.8373
365.4;0.8325
365.5;0.8258
365.6;0.8221
365.7;0.8172
365.8;0.8137
365.9;0.8078
366.0;0.8020
366.1;0.7963
366.2;0.7908
366.3;0.7892
366.4;0.7822
366.5;0.7782
366.6;0.7724
366.7;0.7732
366.8;0.7654
366.9;0.7605
367.0;0.7564
367.1;0.7505
367.2;0.7478
367.3;0.7431
367.4;0.7370
367.5;0.7330
367.6;0.7278
367.7;0.7245
367.8;0.7210
367.9;0.7193
368.0;0.7143
368.1;0.7112
368.2;0.7063
368.3;0.7015
368.4;0.6990
368.5;0.6956
368.6;0.6901
368.7;0.6841
368.8;0.6831
368.9;0.6785
369.0;0.6759
369.1;0.6707
369.2;0.6692
369.3;0.6645
369.4;0.6598
369.5;0.6571
369.6;0.6522
369.7;0.6521
369.8;0.6458
369.9;0.6434
370.0;0.6365
370.1;0.6386
370.2;0.6335
370.3;0.6293
370.4;0.6252
370.5;0.6224
370.6;0.6191
370.7;0.6159
370.8;0.6128
370.9;0.6096
371.0;0.6074
371.1;0.6041
371.2;0.6013
371.3;0.5955
371.4;0.5958
371.5;0.5908
371.6;0.5887
371.7;0.5863
371.8;0.5840
371.9;0.5812
372.0;0.5791
372.1;0.5743
372.2;0.5727
372.3;0.5693
372.4;0.5695
372.5;0.5623
372.6;0.5614
372.7;0.5598
372.8;0.5565
372.9;0.5534
373.0;0.5524
373.1;0.5474
373.2;0.5460
373.3;0.5427
373.4;0.5404
373.5;0.5401
373.6;0.5355
373.7;0.5349
373.8;0.5308
373.9;0.5315
374.0;0.5256
374.1;0.5265
374.2;0.5232
374.3;0.5225
374.4;0.5179
374.5;0.5166
374.6;0.5166
374.7;0.5111
374.8;0.5087
374.9;0.5073
375.0;0.5054
375.1;0.5045
375.2;0.5009
375.3;0.5018
375.4;0.4972
375.5;0.4934
375.6;0.4947
375.7;0.4941
375.8;0.4908
375.9;0.4899
376.0;0.4871
376.1;0.4854
376.2;0.4837
376.3;0.4835
376.4;0.4792
376.5;0.4779
376.6;0.4788
376.7;0.4757
376.8;0.4732
376.9;0.4722
377.0;0.4707
377.1;0.4687
377.2;0.4669
377.3;0.4651
377.4;0.4641
377.5;0.4634
377.6;0.4615
377.7;0.4598
377.8;0.4587
377.9;0.4548
378.0;0.4554
378.1;0.4532
378.2;0.4527
378.3;0.4510
378.4;0.4505
378.5;0.4469
378.6;0.4465
378.7;0.4443
378.8;0.4449
378.9;0.4424
379.0;0.4430
379.1;0.4408
379.2;0.4378
379.3;0.4379
379.4;0.4361
379.5;0.4345
379.6;0.4343
379.7;0.4319
379.8;0.4317
379.9;0.4309
380.0;0.4282
380.1;0.4289
380.2;0.4272
380.3;0.4240
380.4;0.4254
380.5;0.4236
380.6;0.4228
380.7;0.4220
380.8;0.4206
380.9;0.4198
381.0;0.4194
381.1;0.4178
381.2;0.4169
381.3;0.4153
381.4;0.4164
381.5;0.4139
381.6;0.4146
381.7;0.4125
381.8;0.4132
381.9;0.4117
382.0;0.4096
382.1;0.4095
382.2;0.4083
382.3;0.4087
382.4;0.4072
382.5;0.4073
382.6;0.4047
382.7;0.4052
382.8;0.4048
382.9;0.4035
383.0;0.4024
383.1;0.4026
383.2;0.4022
383.3;0.4012
383.4;0.4016
383.5;0.4001
383.6;0.3978
383.7;0.3987
383.8;0.3982
383.9;0.3967
384.0;0.3968
384.1;0.3959
384.2;0.3964
384.3;0.3946
384.4;0.3952
384.5;0.3934
384.6;0.3922
384.7;0.3925
384.8;0.3913
384.9;0.3914
385.0;0.3914
385.1;0.3914
385.2;0.3911
385.3;0.3890
385.4;0.3904
385.5;0.3895
385.6;0.3886
385.7;0.3887
385.8;0.3878
385.9;0.3869
386.0;0.3863
386.1;0.3867
386.2;0.3861
386.3;0.3870
386.4;0.3849
386.5;0.3850
386.6;0.3842
386.7;0.3850
386.8;0.3843
386.9;0.3832
387.0;0.3837
387.1;0.3821
387.2;0.3825
387.3;0.3823
387.4;0.3816
387.5;0.3822
387.6;0.3826
387.7;0.3807
387.8;0.3808
387.9;0.3813
388.0;0.3796
388.1;0.3816
388.2;0.3804
388.3;0.3804
388.4;0.3787
388.5;0.3790
388.6;0.3795
388.7;0.3775
388.8;0.3793
388.9;0.3778
389.0;0.3785
389.1;0.3777
389.2;0.3775
389.3;0.3771
389.4;0.3779
389.5;0.3771
389.6;0.3762
389.7;0.3762
389.8;0.3768
389.9;0.3747
390.0;0.3760
390.1;0.3745
390.2;0.3750
390.3;0.3752
390.4;0.3748
390.5;0.3741
390.6;0.3726
390.7;0.3733
390.8;0.3734
390.9;0.3732
391.0;0.3726
391.1;0.3724
391.2;0.3728
391.3;0.3724
391.4;0.3729
391.5;0.3722
391.6;0.3716
391.7;0.3724
391.8;0.3707
391.9;0.3711
392.0;0.3711
392.1;0.3702
392.2;0.3706
392.3;0.3704
392.4;0.3693
392.5;0.3694
392.6;0.3693
392.7;0.3703
392.8;0.3696
392.9;0.3692
393.0;0.3685
393.1;0.3680
393.2;0.3681
393.3;0.3688
393.4;0.3678
393.5;0.3666
393.6;0.3680
393.7;0.3673
393.8;0.3662
393.9;0.3660
394.0;0.3656
394.1;0.3658
394.2;0.3651
394.3;0.3653
394.4;0.3645
394.5;0.3653
394.6;0.3630
394.7;0.3639
394.8;0.3634
394.9;0.3626
395.0;0.3635
395.1;0.3622
395.2;0.3627
395.3;0.3625
395.4;0.3622
395.5;0.3612
395.6;0.3614
395.7;0.3602
395.8;0.3614
395.9;0.3596
396.0;0.3599
396.1;0.3581
396.2;0.3587
396.3;0.3585
396.4;0.3581
396.5;0.3572
396.6;0.3563
396.7;0.3564
396.8;0.3567
396.9;0.3571
397.0;0.3555
397.1;0.3555
397.2;0.3549
397.3;0.3541
397.4;0.3538
397.5;0.3534
397.6;0.3537
397.7;0.3528
397.8;0.3520
397.9;0.3524
398.0;0.3508
398.1;0.3510
398.2;0.3507
398.3;0.3508
398.4;0.3498
398.5;0.3499
398.6;0.3495
398.7;0.3496
398.8;0.3489
398.9;0.3480
399.0;0.3474
399.1;0.3477
399.2;0.3469
399.3;0.3464
399.4;0.3463
399.5;0.3462
399.6;0.3454
399.7;0.3444
399.8;0.3440
399.9;0.3440
400.0;0.3434
400.1;0.3428
400.2;0.3415
400.3;0.3417
400.4;0.3407
400.5;0.3408
400.6;0.3407
400.7;0.3404
400.8;0.3392
400.9;0.3388
401.0;0.3385
401.1;0.3387
401.2;0.3372
401.3;0.3372
401.4;0.3378
401.5;0.3368
401.6;0.3358
401.7;0.3351
401.8;0.3350
401.9;0.3349
402.0;0.3336
402.1;0.3343
402.2;0.3343
402.3;0.3321
402.4;0.3327
402.5;0.3328
402.6;0.3320
402.7;0.3313
402.8;0.3303
402.9;0.3306
403.0;0.3299
403.1;0.3298
403.2;0.3284
403.3;0.3289
403.4;0.3282
403.5;0.3272
403.6;0.3272
403.7;0.3270
403.8;0.3263
403.9;0.3255
404.0;0.3253
404.1;0.3252
404.2;0.3243
404.3;0.3252
404.4;0.3237
404.5;0.3233
404.6;0.3224
404.7;0.3224
404.8;0.3221
404.9;0.3217
405.0;0.3208
405.1;0.3215
405.2;0.3201
405.3;0.3198
405.4;0.3199
405.5;0.3207
405.6;0.3194
405.7;0.3191
405.8;0.3182
405.9;0.3170
406.0;0.3183
406.1;0.3179
406.2;0.3178
406.3;0.3170
406.4;0.3166
406.5;0.3165
406.6;0.3152
406.7;0.3157
406.8;0.3157
406.9;0.3141
407.0;0.3143
407.1;0.3143
407.2;0.3147
407.3;0.3131
407.4;0.3127
407.5;0.3130
407.6;0.3125
407.7;0.3116
407.8;0.3125
407.9;0.3114
408.0;0.3112
408.1;0.3102
408.2;0.3109
408.3;0.3106
408.4;0.3100
408.5;0.3094
408.6;0.3097
408.7;0.3096
408.8;0.3094
408.9;0.3085
409.0;0.3080
409.1;0.3081
409.2;0.3076
409.3;0.3082
409.4;0.3078
409.5;0.3072
409.6;0.3079
409.7;0.3066
409.8;0.3066
409.9;0.3069
410.0;0.3058
410.1;0.3062
410.2;0.3050
410.3;0.3060
410.4;0.3052
410.5;0.3053
410.6;0.3047
410.7;0.3045
410.8;0.3049
410.9;0.3042
411.0;0.3041
411.1;0.3036
411.2;0.3043
411.3;0.3033
411.4;0.3031
411.5;0.3026
411.6;0.3030
411.7;0.3021
411.8;0.3016
411.9;0.3014
412.0;0.3017
412.1;0.3017
412.2;0.3003
412.3;0.3006
412.4;0.3006
412.5;0.3011
412.6;0.2995
412.7;0.3001
412.8;0.2995
412.9;0.2992
413.0;0.2987
413.1;0.2995
413.2;0.2990
413.3;0.2983
413.4;0.2978
413.5;0.2984
413.6;0.2977
413.7;0.2974
413.8;0.2975
413.9;0.2967
414.0;0.2968
414.1;0.2965
414.2;0.2964
414.3;0.2964
414.4;0.2955
414.5;0.2953
414.6;0.2948
414.7;0.2947
414.8;0.2952
414.9;0.2949
415.0;0.2949
415.1;0.2937
415.2;0.2931
415.3;0.2929
415.4;0.2928
415.5;0.2926
415.6;0.2922
415.7;0.2928
415.8;0.2918
415.9;0.2912
416.0;0.2912
416.1;0.2907
416.2;0.2903
416.3;0.2898
416.4;0.2893
416.5;0.2891
416.6;0.2897
416.7;0.2888
416.8;0.2884
416.9;0.2879
417.0;0.2870
417.1;0.2881
417.2;0.2874
417.3;0.2870
417.4;0.2867
417.5;0.2860
417.6;0.2856
417.7;0.2856
417.8;0.2851
417.9;0.2839
418.0;0.2836
418.1;0.2831
418.2;0.2838
418.3;0.2823
418.4;0.2819
418.5;0.2814
418.6;0.2813
418.7;0.2798
418.8;0.2800
418.9;0.2798
419.0;0.2790
419.1;0.2788
419.2;0.2784
419.3;0.2777
419.4;0.2772
419.5;0.2763
419.6;0.2759
419.7;0.2753
419.8;0.2748
419.9;0.2745
420.0;0.2736
420.1;0.2737
420.2;0.2735
420.3;0.2722
420.4;0.2719
420.5;0.2712
420.6;0.2703
420.7;0.2701
420.8;0.2694
420.9;0.2683
421.0;0.2680
421.1;0.2675
421.2;0.2670
421.3;0.2660
421.4;0.2655
421.5;0.2648
421.6;0.2645
421.7;0.2631
421.8;0.2630
421.9;0.2617
422.0;0.2612
422.1;0.2604
422.2;0.2600
422.3;0.2594
422.4;0.2586
422.5;0.2586
422.6;0.2578
422.7;0.2565
422.8;0.2565
422.9;0.2554
423.0;0.2548
423.1;0.2533
423.2;0.2527
423.3;0.2521
423.4;0.2517
423.5;0.2507
423.6;0.2497
423.7;0.2487
423.8;0.2484
423.9;0.2478
424.0;0.2467
424.1;0.2461
424.2;0.2453
424.3;0.2445
424.4;0.2435
424.5;0.2421
424.6;0.2417
424.7;0.2417
424.8;0.2405
424.9;0.2399
425.0;0.2388
425.1;0.2377
425.2;0.2376
425.3;0.2369
425.4;0.2360
425.5;0.2346
425.6;0.2340
425.7;0.2344
425.8;0.2319
425.9;0.2322
426.0;0.2311
426.1;0.2297
426.2;0.2290
426.3;0.2283
426.4;0.2266
426.5;0.2267
426.6;0.2256
426.7;0.2247
426.8;0.2241
426.9;0.2235
427.0;0.2225
427.1;0.2218
427.2;0.2205
427.3;0.2200
427.4;0.2182
427.5;0.2176
427.6;0.2174
427.7;0.2167
427.8;0.2153
427.9;0.2146
428.0;0.2145
428.1;0.2132
428.2;0.2124
428.3;0.2120
428.4;0.2107
428.5;0.2097
428.6;0.2085
428.7;0.2076
428.8;0.2074
428.9;0.2074
429.0;0.2053
429.1;0.2052
429.2;0.2035
429.3;0.2025
429.4;0.2022
429.5;0.2013
429.6;0.2005
429.7;0.1989
429.8;0.1985
429.9;0.1975
430.0;0.1979
430.1;0.1958
430.2;0.1958
430.3;0.1946
430.4;0.1943
430.5;0.1932
430.6;0.1921
430.7;0.1920
430.8;0.1908
430.9;0.1904
431.0;0.1891
431.1;0.1891
431.2;0.1881
431.3;0.1869
431.4;0.1863
431.5;0.1856
431.6;0.1853
431.7;0.1840
431.8;0.1837
431.9;0.1830
432.0;0.1819
432.1;0.1815
432.2;0.1811
432.3;0.1799
432.4;0.1788
432.5;0.1789
432.6;0.1777
432.7;0.1773
432.8;0.1763
432.9;0.1755
433.0;0.1752
433.1;0.1740
433.2;0.1734
433.3;0.1730
433.4;0.1720
433.5;0.1719
433.6;0.1710
433.7;0.1698
433.8;0.1698
433.9;0.1685
434.0;0.1683
434.1;0.1677
434.2;0.1667
434.3;0.1667
434.4;0.1663
434.5;0.1651
434.6;0.1639
434.7;0.1643
434.8;0.1628
434.9;0.1625
435.0;0.1624
435.1;0.1618
435.2;0.1608
435.3;0.1606
435.4;0.1600
435.5;0.1592
435.6;0.1586
435.7;0.1580
435.8;0.1570
435.9;0.1568
436.0;0.1569
436.1;0.1564
436.2;0.1550
436.3;0.1548
436.4;0.1548
436.5;0.1542
436.6;0.1538
436.7;0.1532
436.8;0.1526
436.9;0.1525
437.0;0.1514
437.1;0.1513
437.2;0.1509
437.3;0.1501
437.4;0.1497
437.5;0.1498
437.6;0.1495
437.7;0.1483
437.8;0.1483
437.9;0.1474
438.0;0.1469
438.1;0.1472
438.2;0.1467
438.3;0.1467
438.4;0.1464
438.5;0.1459
438.6;0.1456
438.7;0.1452
438.8;0.1441
438.9;0.1448
439.0;0.1439
439.1;0.1439
439.2;0.1432
439.3;0.1428
439.4;0.1428
439.5;0.1425
439.6;0.1429
439.7;0.1418
439.8;0.1422
439.9;0.1417
440.0;0.1416
440.1;0.1413
440.2;0.1415
440.3;0.1402
440.4;0.1405
440.5;0.1403
440.6;0.1400
440.7;0.1395
440.8;0.1392
440.9;0.1392
441.0;0.1386
441.1;0.1391
441.2;0.1388
441.3;0.1382
441.4;0.1382
441.5;0.1383
441.6;0.1382
441.7;0.1377
441.8;0.1376
441.9;0.1370
442.0;0.1371
442.1;0.1377
442.2;0.1368
442.3;0.1375
442.4;0.1367
442.5;0.1364
442.6;0.1365
442.7;0.1361
442.8;0.1365
442.9;0.1363
443.0;0.1364
443.1;0.1365
443.2;0.1358
443.3;0.1354
443.4;0.1360
443.5;0.1357
443.6;0.1361
443.7;0.1362
443.8;0.1352
443.9;0.1356
444.0;0.1355
444.1;0.1360
444.2;0.1354
444.3;0.1358
444.4;0.1356
444.5;0.1354
444.6;0.1358
444.7;0.1353
444.8;0.1353
444.9;0.1354
445.0;0.1359
445.1;0.1355
445.2;0.1358
445.3;0.1356
445.4;0.1358
445.5;0.1365
445.6;0.1360
445.7;0.1358
445.8;0.1357
445.9;0.1359
446.0;0.1365
446.1;0.1363
446.2;0.1363
446.3;0.1365
446.4;0.1366
446.5;0.1368
446.6;0.1362
446.7;0.1364
446.8;0.1365
446.9;0.1363
447.0;0.1369
447.1;0.1373
447.2;0.1374
447.3;0.1376
447.4;0.1376
447.5;0.1372
447.6;0.1373
447.7;0.1383
447.8;0.1388
447.9;0.1379
448.0;0.1386
448.1;0.1381
448.2;0.1391
448.3;0.1395
448.4;0.1393
448.5;0.1394
448.6;0.1397
448.7;0.1403
448.8;0.1399
448.9;0.1398
449.0;0.1409
449.1;0.1411
449.2;0.1412
449.3;0.1414
449.4;0.1420
449.5;0.1421
449.6;0.1420
449.7;0.1419
449.8;0.1423
449.9;0.1429
450.0;0.1435
450.1;0.1436
450.2;0.1439
450.3;0.1445
450.4;0.1445
450.5;0.1455
450.6;0.1453
450.7;0.1457
450.8;0.1458
450.9;0.1462
451.0;0.1459
451.1;0.1465
451.2;0.1473
451.3;0.1473
451.4;0.1479
451.5;0.1480
451.6;0.1483
451.7;0.1487
451.8;0.1496
451.9;0.1501
452.0;0.1504
452.1;0.1510
452.2;0.1510
452.3;0.1510
452.4;0.1523
452.5;0.1523
452.6;0.1529
452.7;0.1534
452.8;0.1542
452.9;0.1549
453.0;0.1549
453.1;0.1549
453.2;0.1554
453.3;0.1562
453.4;0.1567
453.5;0.1568
453.6;0.1572
453.7;0.1584
453.8;0.1581
453.9;0.1595
454.0;0.1592
454.1;0.1602
454.2;0.1601
454.3;0.1618
454.4;0.1618
454.5;0.1630
454.6;0.1629
454.7;0.1636
454.8;0.1640
454.9;0.1649
455.0;0.1651
455.1;0.1655
455.2;0.1672
455.3;0.1675
455.4;0.1682
455.5;0.1683
455.6;0.1690
455.7;0.1703
455.8;0.1704
455.9;0.1713
456.0;0.1721
456.1;0.1726
456.2;0.1725
456.3;0.1738
456.4;0.1753
456.5;0.1759
456.6;0.1758
456.7;0.1767
456.8;0.1778
456.9;0.1779
457.0;0.1788
457.1;0.1800
457.2;0.1810
457.3;0.1816
457.4;0.1822
457.5;0.1830
457.6;0.1836
457.7;0.1847
457.8;0.1852
457.9;0.1861
458.0;0.1871
458.1;0.1882
458.2;0.1893
458.3;0.1907
458.4;0.1905
458.5;0.1912
458.6;0.1923
458.7;0.1931
458.8;0.1936
458.9;0.1946
459.0;0.1960
459.1;0.1971
459.2;0.1978
459.3;0.1992
459.4;0.1997
459.5;0.2005
459.6;0.2012
459.7;0.2026
459.8;0.2032
459.9;0.2052
460.0;0.2055
460.1;0.2064
460.2;0.2088
460.3;0.2084
460.4;0.2088
460.5;0.2107
460.6;0.2113
460.7;0.2124
460.8;0.2138
460.9;0.2143
461.0;0.2155
461.1;0.2169
461.2;0.2175
461.3;0.2193
461.4;0.2198
461.5;0.2219
461.6;0.2224
461.7;0.2233
461.8;0.2248
461.9;0.2268
462.0;0.2273
462.1;0.2285
462.2;0.2296
462.3;0.2301
462.4;0.2320
462.5;0.2332
462.6;0.2340
462.7;0.2356
462.8;0.2372
462.9;0.2381
463.0;0.2390
463.1;0.2411
463.2;0.2423
463.3;0.2432
463.4;0.2443
463.5;0.2462
463.6;0.2480
463.7;0.2483
463.8;0.2499
463.9;0.2506
464.0;0.2525
464.1;0.2537
464.2;0.2554
464.3;0.2568
464.4;0.2578
464.5;0.2591
464.6;0.2611
464.7;0.2623
464.8;0.2633
464.9;0.2651
465.0;0.2670
465.1;0.2671
465.2;0.2687
465.3;0.2704
465.4;0.2722
465.5;0.2729
465.6;0.2743
465.7;0.2762
465.8;0.2778
465.9;0.2794
466.0;0.2805
466.1;0.2818
466.2;0.2825
466.3;0.2839
466.4;0.2863
466.5;0.2875
466.6;0.2884
466.7;0.2907
466.8;0.2920
466.9;0.2932
467.0;0.2948
467.1;0.2966
467.2;0.2977
467.3;0.2993
467.4;0.3013
467.5;0.3024
467.6;0.3038
467.7;0.3058
467.8;0.3062
467.9;0.3075
468.0;0.3098
468.1;0.3113
468.2;0.3143
468.3;0.3144
468.4;0.3154
468.5;0.3178
468.6;0.3201
468.7;0.3212
468.8;0.3221
468.9;0.3245
469.0;0.3252
469.1;0.3267
469.2;0.3289
469.3;0.3298
469.4;0.3328
469.5;0.3330
469.6;0.3352
469.7;0.3377
469.8;0.3383
469.9;0.3403
470.0;0.3428
470.1;0.3437
470.2;0.3453
470.3;0.3469
470.4;0.3483
470.5;0.3503
470.6;0.3518
470.7;0.3539
470.8;0.3549
470.9;0.3567
471.0;0.3587
471.1;0.3598
471.2;0.3619
471.3;0.3631
471.4;0.3652
471.5;0.3667
471.6;0.3685
471.7;0.3706
471.8;0.3718
471.9;0.3737
472.0;0.3753
472.1;0.3773
472.2;0.3787
472.3;0.3802
472.4;0.3820
472.5;0.3837
472.6;0.3853
472.7;0.3873
472.8;0.3889
472.9;0.3903
473.0;0.3920
473.1;0.3937
473.2;0.3959
473.3;0.3975
473.4;0.3990
473.5;0.4006
473.6;0.4024
473.7;0.4041
473.8;0.4058
473.9;0.4076
474.0;0.4092
474.1;0.4109
474.2;0.4127
474.3;0.4146
474.4;0.4166
474.5;0.4184
474.6;0.4200
474.7;0.4215
474.8;0.4232
474.9;0.4254
475.0;0.4272
475.1;0.4288
475.2;0.4310
475.3;0.4327
475.4;0.4345
475.5;0.4362
475.6;0.4381
475.7;0.4401
475.8;0.4418
475.9;0.4438
476.0;0.4454
476.1;0.4474
476.2;0.4496
476.3;0.4508
476.4;0.4531
476.5;0.4550
476.6;0.4570
476.7;0.4589
476.8;0.4610
476.9;0.4629
477.0;0.4647
477.1;0.4668
477.2;0.4688
477.3;0.4705
477.4;0.4726
477.5;0.4746
477.6;0.4768
477.7;0.4787
477.8;0.4811
477.9;0.4826
478.0;0.4847
478.1;0.4867
478.2;0.4891
478.3;0.4912
478.4;0.4931
478.5;0.4955
478.6;0.4970
478.7;0.4996
478.8;0.5018
478.9;0.5043
479.0;0.5061
479.1;0.5079
479.2;0.5104
479.3;0.5124
479.4;0.5147
479.5;0.5172
479.6;0.5196
479.7;0.5217
479.8;0.5237
479.9;0.5263
480.0;0.5283
480.1;0.5308
480.2;0.5330
480.3;0.5356
480.4;0.5376
480.5;0.5401
480.6;0.5426
480.7;0.5454
480.8;0.5475
480.9;0.5497
481.0;0.5525
481.1;0.5545
481.2;0.5569
481.3;0.5598
481.4;0.5621
481.5;0.5650
481.6;0.5672
481.7;0.5700
481.8;0.5726
481.9;0.5751
482.0;0.5778
482.1;0.5805
482.2;0.5830
482.3;0.5859
482.4;0.5889
482.5;0.5917
482.6;0.5941
482.7;0.5971
482.8;0.5999
482.9;0.6027
483.0;0.6059
483.1;0.6090
483.2;0.6118
483.3;0.6146
483.4;0.6178
483.5;0.6209
483.6;0.6237
483.7;0.6275
483.8;0.6305
483.9;0.6337
484.0;0.6366
484.1;0.6402
484.2;0.6433
484.3;0.6467
484.4;0.6499
484.5;0.6531
484.6;0.6567
484.7;0.6601
484.8;0.6633
484.9;0.6669
485.0;0.6703
485.1;0.6742
485.2;0.6778
485.3;0.6814
485.4;0.6849
485.5;0.6886
485.6;0.6925
485.7;0.6962
485.8;0.6996
485.9;0.7034
486.0;0.7071
486.1;0.7113
486.2;0.7151
486.3;0.7191
486.4;0.7232
486.5;0.7271
486.6;0.7308
486.7;0.7349
486.8;0.7389
486.9;0.7430
487.0;0.7472
487.1;0.7514
487.2;0.7552
487.3;0.7600
487.4;0.7640
487.5;0.7686
487.6;0.7728
487.7;0.7771
487.8;0.7817
487.9;0.7859
488.0;0.7903
488.1;0.7956
488.2;0.8001
488.3;0.8047
488.4;0.8096
488.5;0.8144
488.6;0.8192
488.7;0.8237
488.8;0.8287
488.9;0.8332
489.0;0.8385
489.1;0.8438
489.2;0.8489
489.3;0.8540
489.4;0.8593
489.5;0.8645
489.6;0.8698
489.7;0.8751
489.8;0.8804
489.9;0.8856
490.0;0.8906
490.1;0.8965
490.2;0.9025
490.3;0.9078
490.4;0.9136
490.5;0.9192
490.6;0.9247
490.7;0.9305
490.8;0.9363
490.9;0.9423
491.0;0.9480
491.1;0.9540
491.2;0.9595
491.3;0.9659
491.4;0.9725
491.5;0.9774
491.6;0.9840
491.7;0.9903
491.8;0.9962
491.9;1.0026
492.0;1.0089
492.1;1.0153
492.2;1.0211
492.3;1.0279
492.4;1.0346
492.5;1.0404
492.6;1.0473
492.7;1.0539
492.8;1.0601
492.9;1.0667
493.0;1.0741
493.1;1.0799
493.2;1.0863
493.3;1.0933
493.4;1.1003
493.5;1.1067
493.6;1.1134
493.7;1.1203
493.8;1.1266
493.9;1.1337
494.0;1.1408
494.1;1.1476
494.2;1.1549
494.3;1.1609
494.4;1.1682
494.5;1.1750
494.6;1.1820
494.7;1.1890
494.8;1.1963
494.9;1.2032
495.0;1.2102
495.1;1.2167
495.2;1.2248
495.3;1.2310
495.4;1.2384
495.5;1.2462
495.6;1.2532
495.7;1.2598
495.8;1.2676
495.9;1.2747
496.0;1.2822
496.1;1.2899
496.2;1.2971
496.3;1.3040
496.4;1.3115
496.5;1.3178
496.6;1.3261
496.7;1.3338
496.8;1.3407
496.9;1.3484
497.0;1.3555
497.1;1.3634
497.2;1.3707
497.3;1.3790
497.4;1.3861
497.5;1.3940
497.6;1.4020
497.7;1.4088
497.8;1.4169
497.9;1.4235
498.0;1.4314
498.1;1.4392
498.2;1.4462
498.3;1.4553
498.4;1.4616
498.5;1.4701
498.6;1.4774
498.7;1.4847
498.8;1.4928
498.9;1.5005
499.0;1.5078
499.1;1.5162
499.2;1.5223
499.3;1.5308
499.4;1.5376
499.5;1.5445
499.6;1.5520
499.7;1.5594
499.8;1.5678
499.9;1.5746
500.0;1.5829
500.1;1.5895
500.2;1.5973
500.3;1.6034
500.4;1.6108
500.5;1.6182
500.6;1.6244
500.7;1.6312
500.8;1.6401
500.9;1.6461
501.0;1.6529
501.1;1.6612
501.2;1.6685
501.3;1.6746
501.4;1.6808
501.5;1.6874
501.6;1.6962
501.7;1.7016
501.8;1.7081
501.9;1.7144
502.0;1.7206
502.1;1.7288
502.2;1.7345
502.3;1.7424
502.4;1.7478
502.5;1.7574
502.6;1.7631
502.7;1.7694
502.8;1.7742
502.9;1.7812
503.0;1.7892
503.1;1.7956
503.2;1.8042
503.3;1.8096
503.4;1.8155
503.5;1.8229
503.6;1.8283
503.7;1.8344
503.8;1.8394
503.9;1.8454
504.0;1.8510
504.1;1.8572
504.2;1.8648
504.3;1.8695
504.4;1.8743
504.5;1.8814
504.6;1.8894
504.7;1.8941
504.8;1.8980
504.9;1.9054
505.0;1.9137
505.1;1.9185
505.2;1.9224
505.3;1.9296
505.4;1.9336
505.5;1.9388
505.6;1.9418
505.7;1.9493
505.8;1.9525
505.9;1.9582
506.0;1.9636
506.1;1.9697
506.2;1.9756
506.3;1.9793
506.4;1.9852
506.5;1.9894
506.6;1.9942
506.7;1.9991
506.8;2.0048
506.9;2.0073
507.0;2.0143
507.1;2.0156
507.2;2.0248
507.3;2.0261
507.4;2.0293
507.5;2.0341
507.6;2.0392
507.7;2.0439
507.8;2.0500
507.9;2.0514
508.0;2.0562
508.1;2.0598
508.2;2.0646
508.3;2.0668
508.4;2.0723
508.5;2.0742
508.6;2.0815
508.7;2.0799
508.8;2.0886
508.9;2.0909
509.0;2.0949
509.1;2.0996
509.2;2.1000
509.3;2.1046
509.4;2.1072
509.5;2.1120
509.6;2.1187
509.7;2.1165
509.8;2.1224
509.9;2.1247
510.0;2.1248
510.1;2.1302
510.2;2.1337
510.3;2.1393
510.4;2.1427
510.5;2.1428
510.6;2.1447
510.7;2.1497
510.8;2.1527
510.9;2.1572
511.0;2.1581
511.1;2.1619
511.2;2.1640
511.3;2.1720
511.4;2.1704
511.5;2.1712
511.6;2.1747
511.7;2.1794
511.8;2.1827
511.9;2.1819
512.0;2.1851
512.1;2.1939
512.2;2.1931
512.3;2.1937
512.4;2.2012
512.5;2.1992
512.6;2.2026
512.7;2.2058
512.8;2.2089
512.9;2.2100
513.0;2.2130
513.1;2.2193
513.2;2.2209
513.3;2.2206
513.4;2.2226
513.5;2.2260
513.6;2.2288
513.7;2.2332
513.8;2.2326
513.9;2.2385
514.0;2.2416
514.1;2.2406
514.2;2.2470
514.3;2.2485
514.4;2.2458
514.5;2.2516
514.6;2.2532
514.7;2.2524
514.8;2.2620
514.9;2.2614
515.0;2.2677
515.1;2.2667
515.2;2.2698
515.3;2.2735
515.4;2.2733
515.5;2.2791
515.6;2.2843
515.7;2.2813
515.8;2.2870
515.9;2.2928
516.0;2.2880
516.1;2.2949
516.2;2.3008
516.3;2.3007
516.4;2.3030
516.5;2.3048
516.6;2.3118
516.7;2.3110
516.8;2.3166
516.9;2.3183
517.0;2.3211
517.1;2.3231
517.2;2.3260
517.3;2.3281
517.4;2.3305
517.5;2.3416
517.6;2.3411
517.7;2.3415
517.8;2.3500
517.9;2.3488
518.0;2.3520
518.1;2.3566
518.2;2.3574
518.3;2.3603
518.4;2.3631
518.5;2.3664
518.6;2.3718
518.7;2.3792
518.8;2.3792
518.9;2.3855
519.0;2.3851
519.1;2.3928
519.2;2.3887
519.3;2.3953
519.4;2.4021
519.5;2.4058
519.6;2.4060
519.7;2.4095
519.8;2.4158
519.9;2.4188
520.0;2.4226
520.1;2.4263
520.2;2.4315
520.3;2.4355
520.4;2.4368
520.5;2.4420
520.6;2.4432
520.7;2.4536
520.8;2.4504
520.9;2.4564
521.0;2.4653
521.1;2.4650
521.2;2.4703
521.3;2.4705
521.4;2.4777
521.5;2.4816
521.6;2.4845
521.7;2.4893
521.8;2.4892
521.9;2.4998
522.0;2.4997
522.1;2.5037
522.2;2.5088
522.3;2.5147
522.4;2.5141
522.5;2.5182
522.6;2.5160
522.7;2.5275
522.8;2.5334
522.9;2.5288
523.0;2.5413
523.1;2.5430
523.2;2.5417
523.3;2.5493
523.4;2.5513
523.5;2.5570
523.6;2.5584
523.7;2.5615
523.8;2.5669
523.9;2.5707
524.0;2.5700
524.1;2.5706
524.2;2.5776
524.3;2.5802
524.4;2.5896
524.5;2.5917
524.6;2.5962
524.7;2.5964
524.8;2.5965
524.9;2.6066
525.0;2.6077
525.1;2.6087
525.2;2.6041
525.3;2.6143
525.4;2.6178
525.5;2.6138
525.6;2.6144
525.7;2.6197
525.8;2.6268
525.9;2.6232
526.0;2.6263
526.1;2.6369
526.2;2.6382
526.3;2.6371
526.4;2.6385
526.5;2.6436
526.6;2.6375
526.7;2.6430
526.8;2.6495
526.9;2.6496
527.0;2.6558
527.1;2.6534
527.2;2.6549
527.3;2.6559
527.4;2.6604
527.5;2.6653
527.6;2.6659
527.7;2.6650
527.8;2.6654
527.9;2.6645
528.0;2.6672
528.1;2.6627
528.2;2.6743
528.3;2.6760
528.4;2.6731
528.5;2.6713
528.6;2.6700
528.7;2.6813
528.8;2.6779
528.9;2.6770
529.0;2.6769
529.1;2.6847
529.2;2.6841
529.3;2.6890
529.4;2.6885
529.5;2.6852
529.6;2.6832
529.7;2.6890
529.8;2.6799
529.9;2.6902
530.0;2.6912
530.1;2.6894
530.2;2.6891
530.3;2.6963
530.4;2.6974
530.5;2.6881
530.6;2.6986
530.7;2.6965
530.8;2.6979
530.9;2.6933
531.0;2.6987
531.1;2.6910
531.2;2.6925
531.3;2.6946
531.4;2.6935
531.5;2.7001
531.6;2.6990
531.7;2.7006
531.8;2.6964
531.9;2.6974
532.0;2.6934
532.1;2.7011
532.2;2.6938
532.3;2.6981
532.4;2.6995
532.5;2.6999
532.6;2.7009
532.7;2.7064
532.8;2.7011
532.9;2.6989
533.0;2.7043
533.1;2.7031
533.2;2.7084
533.3;2.7020
533.4;2.7029
533.5;2.6991
533.6;2.7027
533.7;2.7072
533.8;2.7026
533.9;2.7029
534.0;2.6993
534.1;2.6992
534.2;2.7070
534.3;2.7089
534.4;2.7005
534.5;2.7016
534.6;2.7052
534.7;2.6996
534.8;2.7006
534.9;2.6949
535.0;2.7046
535.1;2.7069
535.2;2.7022
535.3;2.7017
535.4;2.7024
535.5;2.7092
535.6;2.7060
535.7;2.7010
535.8;2.6972
535.9;2.6993
536.0;2.7058
536.1;2.6999
536.2;2.7027
536.3;2.7011
536.4;2.7040
536.5;2.7078
536.6;2.7037
536.7;2.7030
536.8;2.6994
536.9;2.7034
537.0;2.6996
537.1;2.7028
537.2;2.7032
537.3;2.7040
537.4;2.7102
537.5;2.7038
537.6;2.7036
537.7;2.7015
537.8;2.7126
537.9;2.7011
538.0;2.7083
538.1;2.7154
538.2;2.7057
538.3;2.7037
538.4;2.7020
538.5;2.7011
538.6;2.7095
538.7;2.7095
538.8;2.7077
538.9;2.7036
539.0;2.7086
539.1;2.7075
539.2;2.7013
539.3;2.7047
539.4;2.6998
539.5;2.7071
539.6;2.7002
539.7;2.7039
539.8;2.7111
539.9;2.7040
540.0;2.7040
540.1;2.7066
540.2;2.7023
540.3;2.7091
540.4;2.7013
540.5;2.7059
540.6;2.7016
540.7;2.7018
540.8;2.7045
540.9;2.6999
541.0;2.7047
541.1;2.7034
541.2;2.6992
541.3;2.6981
541.4;2.7015
541.5;2.7013
541.6;2.7013
541.7;2.7000
541.8;2.7015
541.9;2.7080
542.0;2.7015
542.1;2.7074
542.2;2.6990
542.3;2.7135
542.4;2.7038
542.5;2.7005
542.6;2.7003
542.7;2.6907
542.8;2.6998
542.9;2.7035
543.0;2.7048
543.1;2.6989
543.2;2.7090
543.3;2.7008
543.4;2.7058
543.5;2.6976
543.6;2.7013
543.7;2.7025
543.8;2.7048
543.9;2.6955
544.0;2.7061
544.1;2.7112
544.2;2.6974
544.3;2.7012
544.4;2.6994
544.5;2.7023
544.6;2.6995
544.7;2.6972
544.8;2.6950
544.9;2.7005
545.0;2.6962
545.1;2.7018
545.2;2.7007
545.3;2.6992
545.4;2.7007
545.5;2.6955
545.6;2.7042
545.7;2.6941
545.8;2.6946
545.9;2.7015
546.0;2.7016
546.1;2.6958
546.2;2.6928
546.3;2.6996
546.4;2.6989
546.5;2.7059
546.6;2.6905
546.7;2.6934
546.8;2.7053
546.9;2.6894
547.0;2.7009
547.1;2.7041
547.2;2.7030
547.3;2.6957
547.4;2.7056
547.5;2.6849
547.6;2.6968
547.7;2.6959
547.8;2.7036
547.9;2.6957
548.0;2.6978
548.1;2.6957
548.2;2.6975
548.3;2.6961
548.4;2.6965
548.5;2.6953
548.6;2.6901
548.7;2.6956
548.8;2.6960
548.9;2.6994
549.0;2.6887
549.1;2.6965
549.2;2.6951
549.3;2.6905
549.4;2.6941
549.5;2.6890
549.6;2.6882
549.7;2.6872
549.8;2.6896
549.9;2.6907
550.0;2.6896
550.1;2.6880
550.2;2.6926
550.3;2.6952
550.4;2.6966
550.5;2.6928
550.6;2.6917
550.7;2.6904
550.8;2.6896
550.9;2.6889
551.0;2.6907
551.1;2.6827
551.2;2.6824
551.3;2.6905
551.4;2.6904
551.5;2.6878
551.6;2.6891
551.7;2.6887
551.8;2.6869
551.9;2.6945
552.0;2.6925
552.1;2.6843
552.2;2.6928
552.3;2.6860
552.4;2.6892
552.5;2.6879
552.6;2.6815
552.7;2.6925
552.8;2.6846
552.9;2.6920
553.0;2.6853
553.1;2.6913
553.2;2.6820
553.3;2.6850
553.4;2.6858
553.5;2.6868
553.6;2.6907
553.7;2.6834
553.8;2.6883
553.9;2.6899
554.0;2.6905
554.1;2.6854
554.2;2.6847
554.3;2.6817
554.4;2.6844
554.5;2.6893
554.6;2.6903
554.7;2.6855
554.8;2.6875
554.9;2.6755
555.0;2.6781
555.1;2.6837
555.2;2.6793
555.3;2.6781
555.4;2.6842
555.5;2.6795
555.6;2.6843
555.7;2.6816
555.8;2.6804
555.9;2.6747
556.0;2.6793
556.1;2.6831
556.2;2.6836
556.3;2.6758
556.4;2.6823
556.5;2.6719
556.6;2.6768
556.7;2.6754
556.8;2.6722
556.9;2.6779
557.0;2.6786
557.1;2.6800
557.2;2.6766
557.3;2.6671
557.4;2.6705
557.5;2.6670
557.6;2.6802
557.7;2.6659
557.8;2.6656
557.9;2.6648
558.0;2.6689
558.1;2.6641
558.2;2.6662
558.3;2.6674
558.4;2.6578
558.5;2.6640
558.6;2.6614
558.7;2.6665
558.8;2.6560
558.9;2.6622
559.0;2.6550
559.1;2.6617
559.2;2.6579
559.3;2.6607
559.4;2.6534
559.5;2.6564
559.6;2.6473
559.7;2.6426
559.8;2.6459
559.9;2.6457
560.0;2.6431
560.1;2.6415
560.2;2.6308
560.3;2.6451
560.4;2.6326
560.5;2.6279
560.6;2.6312
560.7;2.6230
560.8;2.6211
560.9;2.6161
561.0;2.6083
561.1;2.6036
561.2;2.5961
561.3;2.5917
561.4;2.5892
561.5;2.5875
561.6;2.5748
561.7;2.5732
561.8;2.5714
561.9;2.5609
562.0;2.5436
562.1;2.5456
562.2;2.5343
562.3;2.5339
562.4;2.5208
562.5;2.5092
562.6;2.5002
562.7;2.4911
562.8;2.4805
562.9;2.4667
563.0;2.4604
563.1;2.4480
563.2;2.4351
563.3;2.4245
563.4;2.4053
563.5;2.3955
563.6;2.3823
563.7;2.3722
563.8;2.3554
563.9;2.3452
564.0;2.3230
564.1;2.3109
564.2;2.2911
564.3;2.2799
564.4;2.2590
564.5;2.2451
564.6;2.2229
564.7;2.2061
564.8;2.1890
564.9;2.1726
565.0;2.1535
565.1;2.1335
565.2;2.1170
565.3;2.0967
565.4;2.0761
565.5;2.0591
565.6;2.0387
565.7;2.0199
565.8;1.9997
565.9;1.9798
566.0;1.9598
566.1;1.9397
566.2;1.9203
566.3;1.8993
566.4;1.8792
566.5;1.8597
566.6;1.8390
566.7;1.8194
566.8;1.7989
566.9;1.7783
567.0;1.7590
567.1;1.7379
567.2;1.7188
567.3;1.6975
567.4;1.6777
567.5;1.6583
567.6;1.6369
567.7;1.6173
567.8;1.5983
567.9;1.5784
568.0;1.5582
568.1;1.5398
568.2;1.5197
568.3;1.5005
568.4;1.4818
568.5;1.4627
568.6;1.4446
568.7;1.4254
568.8;1.4077
568.9;1.3892
569.0;1.3708
569.1;1.3531
569.2;1.3358
569.3;1.3179
569.4;1.3006
569.5;1.2835
569.6;1.2669
569.7;1.2493
569.8;1.2328
569.9;1.2170
570.0;1.2008
570.1;1.1844
570.2;1.1687
570.3;1.1532
570.4;1.1373
570.5;1.1220
570.6;1.1074
570.7;1.0921
570.8;1.0775
570.9;1.0628
571.0;1.0481
571.1;1.0335
571.2;1.0194
571.3;1.0052
571.4;0.9913
571.5;0.9775
571.6;0.9638
571.7;0.9500
571.8;0.9363
571.9;0.9226
572.0;0.9094
572.1;0.8963
572.2;0.8833
572.3;0.8704
572.4;0.8579
572.5;0.8452
572.6;0.8328
572.7;0.8204
572.8;0.8080
572.9;0.7959
573.0;0.7841
573.1;0.7724
573.2;0.7606
573.3;0.7490
573.4;0.7375
573.5;0.7264
573.6;0.7150
573.7;0.7044
573.8;0.6936
573.9;0.6828
574.0;0.6721
574.1;0.6619
574.2;0.6519
574.3;0.6416
574.4;0.6317
574.5;0.6224
574.6;0.6125
574.7;0.6028
574.8;0.5935
574.9;0.5844
575.0;0.5749
575.1;0.5662
575.2;0.5575
575.3;0.5487
575.4;0.5397
575.5;0.5314
575.6;0.5234
575.7;0.5145
575.8;0.5067
575.9;0.4989
576.0;0.4908
576.1;0.4830
576.2;0.4754
576.3;0.4679
576.4;0.4603
576.5;0.4530
576.6;0.4458
576.7;0.4387
576.8;0.4313
576.9;0.4246
577.0;0.4179
577.1;0.4109
577.2;0.4044
577.3;0.3983
577.4;0.3917
577.5;0.3849
577.6;0.3789
577.7;0.3728
577.8;0.3667
577.9;0.3609
578.0;0.3551
578.1;0.3492
578.2;0.3433
578.3;0.3381
578.4;0.3327
578.5;0.3271
578.6;0.3218
578.7;0.3168
578.8;0.3117
578.9;0.3065
579.0;0.3016
579.1;0.2967
579.2;0.2918
579.3;0.2872
579.4;0.2828
579.5;0.2781
579.6;0.2737
579.7;0.2692
579.8;0.2649
579.9;0.2605
580.0;0.2563
580.1;0.2523
580.2;0.2481
580.3;0.2443
580.4;0.2402
580.5;0.2365
580.6;0.2326
580.7;0.2287
580.8;0.2249
580.9;0.2213
581.0;0.2177
581.1;0.2141
581.2;0.2107
581.3;0.2073
581.4;0.2038
581.5;0.2007
581.6;0.1974
581.7;0.1941
581.8;0.1909
581.9;0.1880
582.0;0.1848
582.1;0.1818
582.2;0.1788
582.3;0.1760
582.4;0.1731
582.5;0.1701
582.6;0.1672
582.7;0.1646
582.8;0.1618
582.9;0.1590
583.0;0.1567
583.1;0.1541
583.2;0.1515
583.3;0.1491
583.4;0.1466
583.5;0.1441
583.6;0.1421
583.7;0.1395
583.8;0.1374
583.9;0.1352
584.0;0.1330
584.1;0.1307
584.2;0.1285
584.3;0.1263
584.4;0.1247
584.5;0.1227
584.6;0.1206
584.7;0.1187
584.8;0.1167
584.9;0.1149
585.0;0.1131
585.1;0.1114
585.2;0.1097
585.3;0.1078
585.4;0.1061
585.5;0.1044
585.6;0.1028
585.7;0.1011
585.8;0.0997
585.9;0.0979
586.0;0.0965
586.1;0.0951
586.2;0.0935
586.3;0.0918
586.4;0.0905
586.5;0.0890
586.6;0.0877
586.7;0.0863
586.8;0.0851
586.9;0.0837
587.0;0.0825
587.1;0.0809
587.2;0.0799
587.3;0.0785
587.4;0.0772
587.5;0.0761
587.6;0.0750
587.7;0.0736
587.8;0.0728
587.9;0.0715
588.0;0.0704
588.1;0.0694
588.2;0.0685
588.3;0.0673
588.4;0.0661
588.5;0.0652
588.6;0.0642
588.7;0.0633
588.8;0.0624
588.9;0.0612
589.0;0.0606
589.1;0.0597
589.2;0.0588
589.3;0.0578
589.4;0.0570
589.5;0.0561
589.6;0.0551
589.7;0.0545
589.8;0.0538
589.9;0.0530
590.0;0.0523
590.1;0.0514
590.2;0.0506
590.3;0.0501
590.4;0.0492
590.5;0.0486
590.6;0.0480
590.7;0.0470
590.8;0.0466
590.9;0.0458
591.0;0.0451
591.1;0.0447
591.2;0.0440
591.3;0.0435
591.4;0.0430
591.5;0.0422
591.6;0.0417
591.7;0.0412
591.8;0.0407
591.9;0.0400
592.0;0.0394
592.1;0.0391
592.2;0.0385
592.3;0.0380
592.4;0.0374
592.5;0.0370
592.6;0.0366
592.7;0.0361
592.8;0.0358
592.9;0.0351
593.0;0.0347
593.1;0.0342
593.2;0.0337
593.3;0.0335
593.4;0.0328
593.5;0.0324
593.6;0.0322
593.7;0.0317
593.8;0.0313
593.9;0.0310
594.0;0.0306
594.1;0.0303
594.2;0.0298
594.3;0.0297
594.4;0.0292
594.5;0.0288
594.6;0.0285
594.7;0.0283
594.8;0.0280
594.9;0.0275
595.0;0.0274
595.1;0.0269
595.2;0.0267
595.3;0.0262
595.4;0.0260
595.5;0.0257
595.6;0.0254
595.7;0.0254
595.8;0.0249
595.9;0.0247
596.0;0.0242
596.1;0.0242
596.2;0.0239
596.3;0.0237
596.4;0.0234
596.5;0.0231
596.6;0.0230
596.7;0.0227
596.8;0.0226
596.9;0.0225
597.0;0.0220
597.1;0.0218
597.2;0.0217
597.3;0.0213
597.4;0.0214
597.5;0.0211
597.6;0.0210
597.7;0.0208
597.8;0.0204
597.9;0.0203
598.0;0.0203
598.1;0.0199
598.2;0.0198
598.3;0.0195
598.4;0.0195
598.5;0.0191
598.6;0.0191
598.7;0.0189
598.8;0.0187
598.9;0.0185
599.0;0.0185
599.1;0.0182
599.2;0.0182
599.3;0.0179
599.4;0.0178
599.5;0.0176
599.6;0.0176
599.7;0.0174
599.8;0.0172
599.9;0.0172
600.0;0.0169
600.1;0.0169
600.2;0.0168
600.3;0.0168
600.4;0.0167
600.5;0.0163
600.6;0.0163
600.7;0.0163
600.8;0.0159
600.9;0.0161
601.0;0.0160
601.1;0.0158
601.2;0.0156
601.3;0.0157
601.4;0.0154
601.5;0.0152
601.6;0.0153
601.7;0.0151
601.8;0.0150
601.9;0.0149
602.0;0.0150
602.1;0.0147
602.2;0.0146
602.3;0.0145
602.4;0.0147
602.5;0.0145
602.6;0.0143
602.7;0.0141
602.8;0.0140
602.9;0.0142
603.0;0.0142
603.1;0.0141
603.2;0.0140
603.3;0.0138
603.4;0.0138
603.5;0.0137
603.6;0.0137
603.7;0.0137
603.8;0.0134
603.9;0.0136
604.0;0.0135
604.1;0.0134
604.2;0.0132
604.3;0.0130
604.4;0.0132
604.5;0.0131
604.6;0.0131
604.7;0.0130
604.8;0.0129
604.9;0.0130
605.0;0.0128
605.1;0.0129
605.2;0.0127
605.3;0.0126
605.4;0.0125
605.5;0.0127
605.6;0.0126
605.7;0.0125
605.8;0.0124
605.9;0.0124
606.0;0.0123
606.1;0.0123
606.2;0.0123
606.3;0.0122
606.4;0.0122
606.5;0.0121
606.6;0.0121
606.7;0.0119
606.8;0.0120
606.9;0.0118
607.0;0.0118
607.1;0.0118
607.2;0.0118
607.3;0.0117
607.4;0.0117
607.5;0.0118
607.6;0.0116
607.7;0.0114
607.8;0.0116
607.9;0.0116
608.0;0.0116
608.1;0.0115
608.2;0.0114
608.3;0.0113
608.4;0.0115
608.5;0.0114
608.6;0.0113
608.7;0.0113
608.8;0.0112
608.9;0.0112
609.0;0.0111
609.1;0.0113
609.2;0.0111
609.3;0.0110
609.4;0.0109
609.5;0.0109
609.6;0.0109
609.7;0.0111
609.8;0.0110
609.9;0.0109
610.0;0.0109
610.1;0.0108
610.2;0.0110
610.3;0.0109
610.4;0.0108
610.5;0.0108
610.6;0.0106
610.7;0.0107
610.8;0.0110
610.9;0.0105
611.0;0.0107
611.1;0.0106
611.2;0.0107
611.3;0.0105
611.4;0.0106
611.5;0.0104
611.6;0.0106
611.7;0.0105
611.8;0.0103
611.9;0.0104
612.0;0.0105
612.1;0.0104
612.2;0.0103
612.3;0.0104
612.4;0.0102
612.5;0.0103
612.6;0.0104
612.7;0.0104
612.8;0.0103
612.9;0.0102
613.0;0.0100
613.1;0.0103
613.2;0.0101
613.3;0.0101
613.4;0.0101
613.5;0.0102
613.6;0.0102
613.7;0.0101
613.8;0.0100
613.9;0.0101
614.0;0.0101
614.1;0.0101
614.2;0.0100
614.3;0.0100
614.4;0.0099
614.5;0.0101
614.6;0.0099
614.7;0.0099
614.8;0.0099
614.9;0.0099
615.0;0.0098
615.1;0.0098
615.2;0.0099
615.3;0.0098
615.4;0.0097
615.5;0.0098
615.6;0.0098
615.7;0.0098
615.8;0.0098
615.9;0.0097
616.0;0.0097
616.1;0.0096
616.2;0.0099
616.3;0.0097
616.4;0.0096
616.5;0.0096
616.6;0.0097
616.7;0.0096
616.8;0.0096
616.9;0.0097
617.0;0.0096
617.1;0.0096
617.2;0.0094
617.3;0.0098
617.4;0.0094
617.5;0.0095
617.6;0.0097
617.7;0.0095
617.8;0.0095
617.9;0.0095
618.0;0.0095
618.1;0.0094
618.2;0.0094
618.3;0.0094
618.4;0.0093
618.5;0.0094
618.6;0.0094
618.7;0.0093
618.8;0.0094
618.9;0.0095
619.0;0.0095
619.1;0.0094
619.2;0.0093
619.3;0.0094
619.4;0.0093
619.5;0.0092
619.6;0.0094
619.7;0.0093
619.8;0.0093
619.9;0.0094
620.0;0.0093
620.1;0.0094
620.2;0.0093
620.3;0.0092
620.4;0.0092
620.5;0.0092
620.6;0.0091
620.7;0.0093
620.8;0.0092
620.9;0.0092
621.0;0.0091
621.1;0.0090
621.2;0.0092
621.3;0.0092
621.4;0.0090
621.5;0.0092
621.6;0.0091
621.7;0.0091
621.8;0.0090
621.9;0.0090
622.0;0.0091
622.1;0.0090
622.2;0.0090
622.3;0.0091
622.4;0.0089
622.5;0.0091
622.6;0.0090
622.7;0.0091
622.8;0.0089
622.9;0.0089
623.0;0.0091
623.1;0.0091
623.2;0.0090
623.3;0.0091
623.4;0.0090
623.5;0.0089
623.6;0.0089
623.7;0.0091
623.8;0.0089
623.9;0.0089
624.0;0.0090
624.1;0.0089
624.2;0.0089
624.3;0.0090
624.4;0.0088
624.5;0.0088
624.6;0.0088
624.7;0.0088
624.8;0.0087
624.9;0.0088
625.0;0.0089
625.1;0.0088
625.2;0.0088
625.3;0.0087
625.4;0.0090
625.5;0.0089
625.6;0.0089
625.7;0.0088
625.8;0.0088
625.9;0.0086
626.0;0.0089
626.1;0.0087
626.2;0.0088
626.3;0.0086
626.4;0.0087
626.5;0.0086
626.6;0.0089
626.7;0.0088
626.8;0.0086
626.9;0.0089
627.0;0.0087
627.1;0.0089
627.2;0.0088
627.3;0.0087
627.4;0.0087
627.5;0.0086
627.6;0.0087
627.7;0.0086
627.8;0.0087
627.9;0.0088
628.0;0.0087
628.1;0.0088
628.2;0.0087
628.3;0.0086
628.4;0.0088
628.5;0.0086
628.6;0.0087
628.7;0.0086
628.8;0.0087
628.9;0.0087
629.0;0.0088
629.1;0.0085
629.2;0.0086
629.3;0.0087
629.4;0.0086
629.5;0.0086
629.6;0.0087
629.7;0.0086
629.8;0.0086
629.9;0.0085
630.0;0.0087
630.1;0.0086
630.2;0.0085
630.3;0.0086
630.4;0.0086
630.5;0.0085
630.6;0.0085
630.7;0.0087
630.8;0.0085
630.9;0.0085
631.0;0.0086
631.1;0.0086
631.2;0.0086
631.3;0.0085
631.4;0.0087
631.5;0.0085
631.6;0.0086
631.7;0.0085
631.8;0.0084
631.9;0.0085
632.0;0.0085
632.1;0.0085
632.2;0.0084
632.3;0.0083
632.4;0.0085
632.5;0.0084
632.6;0.0086
632.7;0.0085
632.8;0.0085
632.9;0.0085
633.0;0.0083
633.1;0.0084
633.2;0.0084
633.3;0.0084
633.4;0.0084
633.5;0.0085
633.6;0.0084
633.7;0.0084
633.8;0.0085
633.9;0.0084
634.0;0.0083
634.1;0.0083
634.2;0.0082
634.3;0.0084
634.4;0.0084
634.5;0.0083
634.6;0.0084
634.7;0.0083
634.8;0.0084
634.9;0.0084
635.0;0.0084
635.1;0.0084
635.2;0.0084
635.3;0.0082
635.4;0.0084
635.5;0.0083
635.6;0.0085
635.7;0.0081
635.8;0.0083
635.9;0.0083
636.0;0.0083
636.1;0.0083
636.2;0.0084
636.3;0.0084
636.4;0.0082
636.5;0.0083
636.6;0.0083
636.7;0.0083
636.8;0.0083
636.9;0.0083
637.0;0.0082
637.1;0.0082
637.2;0.0081
637.3;0.0083
637.4;0.0082
637.5;0.0084
637.6;0.0082
637.7;0.0084
637.8;0.0083
637.9;0.0083
638.0;0.0084
638.1;0.0082
638.2;0.0083
638.3;0.0083
638.4;0.0083
638.5;0.0083
638.6;0.0081
638.7;0.0083
638.8;0.0081
638.9;0.0082
639.0;0.0083
639.1;0.0081
639.2;0.0082
639.3;0.0084
639.4;0.0082
639.5;0.0083
639.6;0.0082
639.7;0.0083
639.8;0.0081
639.9;0.0083
640.0;0.0082
640.1;0.0081
640.2;0.0081
640.3;0.0083
640.4;0.0083
640.5;0.0083
640.6;0.0083
640.7;0.0082
640.8;0.0084
640.9;0.0082
641.0;0.0082
641.1;0.0081
641.2;0.0081
641.3;0.0082
641.4;0.0080
641.5;0.0082
641.6;0.0080
641.7;0.0082
641.8;0.0082
641.9;0.0082
642.0;0.0083
642.1;0.0080
642.2;0.0081
642.3;0.0083
642.4;0.0080
642.5;0.0082
642.6;0.0082
642.7;0.0081
642.8;0.0082
642.9;0.0081
643.0;0.0081
643.1;0.0081
643.2;0.0082
643.3;0.0081
643.4;0.0080
643.5;0.0080
643.6;0.0082
643.7;0.0081
643.8;0.0080
643.9;0.0082
644.0;0.0080
644.1;0.0081
644.2;0.0080
644.3;0.0081
644.4;0.0080
644.5;0.0079
644.6;0.0079
644.7;0.0080
644.8;0.0080
644.9;0.0081
645.0;0.0081
645.1;0.0081
645.2;0.0081
645.3;0.0078
645.4;0.0081
645.5;0.0082
645.6;0.0082
645.7;0.0081
645.8;0.0080
645.9;0.0081
646.0;0.0079
646.1;0.0082
646.2;0.0081
646.3;0.0080
646.4;0.0080
646.5;0.0081
646.6;0.0080
646.7;0.0081
646.8;0.0081
646.9;0.0080
647.0;0.0080
647.1;0.0080
647.2;0.0080
647.3;0.0079
647.4;0.0081
647.5;0.0082
647.6;0.0080
647.7;0.0080
647.8;0.0079
647.9;0.0083
648.0;0.0080
648.1;0.0080
648.2;0.0079
648.3;0.0078
648.4;0.0079
648.5;0.0078
648.6;0.0079
648.7;0.0080
648.8;0.0080
648.9;0.0080
649.0;0.0080
649.1;0.0079
649.2;0.0077
649.3;0.0079
649.4;0.0078
649.5;0.0078
649.6;0.0080
649.7;0.0079
649.8;0.0080
649.9;0.0079
650.0;0.0080
650.1;0.0080
650.2;0.0079
650.3;0.0079
650.4;0.0079
650.5;0.0077
650.6;0.0078
650.7;0.0078
650.8;0.0078
650.9;0.0080
651.0;0.0079
651.1;0.0079
651.2;0.0077
651.3;0.0078
651.4;0.0078
651.5;0.0079
651.6;0.0079
651.7;0.0077
651.8;0.0080
651.9;0.0079
652.0;0.0081
652.1;0.0079
652.2;0.0078
652.3;0.0078
652.4;0.0078
652.5;0.0078
652.6;0.0079
652.7;0.0078
652.8;0.0078
652.9;0.0079
653.0;0.0078
653.1;0.0078
653.2;0.0078
653.3;0.0079
653.4;0.0079
653.5;0.0079
653.6;0.0078
653.7;0.0077
653.8;0.0080
653.9;0.0079
654.0;0.0078
654.1;0.0078
654.2;0.0077
654.3;0.0078
654.4;0.0079
654.5;0.0079
654.6;0.0078
654.7;0.0078
654.8;0.0079
654.9;0.0078
655.0;0.0077
655.1;0.0079
655.2;0.0078
655.3;0.0078
655.4;0.0077
655.5;0.0079
655.6;0.0079
655.7;0.0078
655.8;0.0075
655.9;0.0077
656.0;0.0077
656.1;0.0077
656.2;0.0078
656.3;0.0077
656.4;0.0077
656.5;0.0079
656.6;0.0079
656.7;0.0078
656.8;0.0077
656.9;0.0079
657.0;0.0078
657.1;0.0078
657.2;0.0078
657.3;0.0077
657.4;0.0076
657.5;0.0078
657.6;0.0077
657.7;0.0077
657.8;0.0078
657.9;0.0076
658.0;0.0076
658.1;0.0079
658.2;0.0079
658.3;0.0077
658.4;0.0078
658.5;0.0078
658.6;0.0076
658.7;0.0078
658.8;0.0079
658.9;0.0076
659.0;0.0078
659.1;0.0078
659.2;0.0077
659.3;0.0075
659.4;0.0078
659.5;0.0079
659.6;0.0077
659.7;0.0076
659.8;0.0078
659.9;0.0077
660.0;0.0078
660.1;0.0077
660.2;0.0077
660.3;0.0077
660.4;0.0078
660.5;0.0078
660.6;0.0077
660.7;0.0078
660.8;0.0078
660.9;0.0076
661.0;0.0078
661.1;0.0077
661.2;0.0078
661.3;0.0078
661.4;0.0078
661.5;0.0080
661.6;0.0078
661.7;0.0078
661.8;0.0080
661.9;0.0077
662.0;0.0078
662.1;0.0077
662.2;0.0080
662.3;0.0079
662.4;0.0079
662.5;0.0077
662.6;0.0078
662.7;0.0079
662.8;0.0078
662.9;0.0078
663.0;0.0078
663.1;0.0077
663.2;0.0078
663.3;0.0079
663.4;0.0079
663.5;0.0080
663.6;0.0079
663.7;0.0079
663.8;0.0080
663.9;0.0078
664.0;0.0080
664.1;0.0079
664.2;0.0079
664.3;0.0079
664.4;0.0078
664.5;0.0080
664.6;0.0079
664.7;0.0081
664.8;0.0080
664.9;0.0080
665.0;0.0081
665.1;0.0079
665.2;0.0081
665.3;0.0080
665.4;0.0080
665.5;0.0080
665.6;0.0081
665.7;0.0079
665.8;0.0081
665.9;0.0080
666.0;0.0080
666.1;0.0081
666.2;0.0082
666.3;0.0080
666.4;0.0080
666.5;0.0080
666.6;0.0080
666.7;0.0081
666.8;0.0080
666.9;0.0081
667.0;0.0080
667.1;0.0080
667.2;0.0081
667.3;0.0081
667.4;0.0080
667.5;0.0083
667.6;0.0080
667.7;0.0081
667.8;0.0082
667.9;0.0082
668.0;0.0081
668.1;0.0082
668.2;0.0080
668.3;0.0081
668.4;0.0082
668.5;0.0082
668.6;0.0080
668.7;0.0081
668.8;0.0082
668.9;0.0082
669.0;0.0079
669.1;0.0081
669.2;0.0083
669.3;0.0082
669.4;0.0082
669.5;0.0082
669.6;0.0083
669.7;0.0083
669.8;0.0083
669.9;0.0082
670.0;0.0085
670.1;0.0083
670.2;0.0083
670.3;0.0084
670.4;0.0084
670.5;0.0083
670.6;0.0082
670.7;0.0082
670.8;0.0083
670.9;0.0082
671.0;0.0082
671.1;0.0084
671.2;0.0082
671.3;0.0082
671.4;0.0081
671.5;0.0084
671.6;0.0084
671.7;0.0084
671.8;0.0084
671.9;0.0083
672.0;0.0082
672.1;0.0083
672.2;0.0083
672.3;0.0083
672.4;0.0084
672.5;0.0082
672.6;0.0082
672.7;0.0083
672.8;0.0082
672.9;0.0083
673.0;0.0084
673.1;0.0082
673.2;0.0084
673.3;0.0084
673.4;0.0082
673.5;0.0082
673.6;0.0083
673.7;0.0081
673.8;0.0081
673.9;0.0084
674.0;0.0083
674.1;0.0083
674.2;0.0084
674.3;0.0083
674.4;0.0083
674.5;0.0082
674.6;0.0084
674.7;0.0082
674.8;0.0083
674.9;0.0083
675.0;0.0083
675.1;0.0083
675.2;0.0084
675.3;0.0083
675.4;0.0083
675.5;0.0082
675.6;0.0081
675.7;0.0083
675.8;0.0083
675.9;0.0084
676.0;0.0082
676.1;0.0081
676.2;0.0082
676.3;0.0082
676.4;0.0082
676.5;0.0082
676.6;0.0081
676.7;0.0082
676.8;0.0083
676.9;0.0081
677.0;0.0082
677.1;0.0083
677.2;0.0080
677.3;0.0081
677.4;0.0083
677.5;0.0083
677.6;0.0081
677.7;0.0081
677.8;0.0081
677.9;0.0081
678.0;0.0081
678.1;0.0080
678.2;0.0081
678.3;0.0080
678.4;0.0079
678.5;0.0079
678.6;0.0080
678.7;0.0080
678.8;0.0081
678.9;0.0081
679.0;0.0078
679.1;0.0080
679.2;0.0079
679.3;0.0079
679.4;0.0080
679.5;0.0081
679.6;0.0080
679.7;0.0077
679.8;0.0078
679.9;0.0079
680.0;0.0078
680.1;0.0077
680.2;0.0078
680.3;0.0079
680.4;0.0077
680.5;0.0078
680.6;0.0079
680.7;0.0080
680.8;0.0079
680.9;0.0078
681.0;0.0077
681.1;0.0077
681.2;0.0077
681.3;0.0077
681.4;0.0076
681.5;0.0077
681.6;0.0076
681.7;0.0075
681.8;0.0075
681.9;0.0075
682.0;0.0075
682.1;0.0075
682.2;0.0075
682.3;0.0075
682.4;0.0076
682.5;0.0076
682.6;0.0074
682.7;0.0075
682.8;0.0073
682.9;0.0075
683.0;0.0075
683.1;0.0074
683.2;0.0076
683.3;0.0075
683.4;0.0075
683.5;0.0074
683.6;0.0074
683.7;0.0072
683.8;0.0074
683.9;0.0074
684.0;0.0075
684.1;0.0075
684.2;0.0074
684.3;0.0072
684.4;0.0073
684.5;0.0074
684.6;0.0075
684.7;0.0073
684.8;0.0075
684.9;0.0072
685.0;0.0073
685.1;0.0073
685.2;0.0072
685.3;0.0073
685.4;0.0072
685.5;0.0072
685.6;0.0072
685.7;0.0074
685.8;0.0072
685.9;0.0072
686.0;0.0071
686.1;0.0070
686.2;0.0072
686.3;0.0070
686.4;0.0071
686.5;0.0071
686.6;0.0071
686.7;0.0072
686.8;0.0069
686.9;0.0070
687.0;0.0071
687.1;0.0072
687.2;0.0069
687.3;0.0070
687.4;0.0070
687.5;0.0072
687.6;0.0070
687.7;0.0070
687.8;0.0069
687.9;0.0070
688.0;0.0071
688.1;0.0070
688.2;0.0070
688.3;0.0070
688.4;0.0068
688.5;0.0068
688.6;0.0069
688.7;0.0069
688.8;0.0068
688.9;0.0069
689.0;0.0069
689.1;0.0069
689.2;0.0068
689.3;0.0069
689.4;0.0069
689.5;0.0068
689.6;0.0070
689.7;0.0071
689.8;0.0067
689.9;0.0068
690.0;0.0066
690.1;0.0068
690.2;0.0067
690.3;0.0068
690.4;0.0069
690.5;0.0067
690.6;0.0068
690.7;0.0066
690.8;0.0067
690.9;0.0068
691.0;0.0068
691.1;0.0069
691.2;0.0066
691.3;0.0068
691.4;0.0066
691.5;0.0068
691.6;0.0067
691.7;0.0067
691.8;0.0068
691.9;0.0068
692.0;0.0067
692.1;0.0068
692.2;0.0066
692.3;0.0066
692.4;0.0067
692.5;0.0065
692.6;0.0067
692.7;0.0066
692.8;0.0066
692.9;0.0067
693.0;0.0067
693.1;0.0067
693.2;0.0067
693.3;0.0066
693.4;0.0066
693.5;0.0067
693.6;0.0067
693.7;0.0066
693.8;0.0066
693.9;0.0067
694.0;0.0067
694.1;0.0066
694.2;0.0067
694.3;0.0065
694.4;0.0065
694.5;0.0067
694.6;0.0066
694.7;0.0066
694.8;0.0065
694.9;0.0066
695.0;0.0066
695.1;0.0064
695.2;0.0065
695.3;0.0066
695.4;0.0065
695.5;0.0065
695.6;0.0066
695.7;0.0065
695.8;0.0065
695.9;0.0067
696.0;0.0066
696.1;0.0066
696.2;0.0066
696.3;0.0065
696.4;0.0065
696.5;0.0066
696.6;0.0064
696.7;0.0067
696.8;0.0064
696.9;0.0064
697.0;0.0064
697.1;0.0066
697.2;0.0065
697.3;0.0064
697.4;0.0064
697.5;0.0064
697.6;0.0066
697.7;0.0066
697.8;0.0064
697.9;0.0065
698.0;0.0064
698.1;0.0065
698.2;0.0064
698.3;0.0065
698.4;0.0065
698.5;0.0064
698.6;0.0064
698.7;0.0066
698.8;0.0064
698.9;0.0064
699.0;0.0065
699.1;0.0066
699.2;0.0065
699.3;0.0065
699.4;0.0063
699.5;0.0063
699.6;0.0065
699.7;0.0064
699.8;0.0064
699.9;0.0065
700.0;0.0065
700.1;0.0064
700.2;0.0065
700.3;0.0064
700.4;0.0064
700.5;0.0064
700.6;0.0064
700.7;0.0065
700.8;0.0065
700.9;0.0064
701.0;0.0063
701.1;0.0064
701.2;0.0064
701.3;0.0064
701.4;0.0064
701.5;0.0063
701.6;0.0064
701.7;0.0063
701.8;0.0064
701.9;0.0062
702.0;0.0062
702.1;0.0062
702.2;0.0064
702.3;0.0063
702.4;0.0066
702.5;0.0063
702.6;0.0065
702.7;0.0062
702.8;0.0062
702.9;0.0065
703.0;0.0064
703.1;0.0064
703.2;0.0062
703.3;0.0062
703.4;0.0063
703.5;0.0064
703.6;0.0064
703.7;0.0063
703.8;0.0062
703.9;0.0062
704.0;0.0062
704.1;0.0063
704.2;0.0062
704.3;0.0063
704.4;0.0062
704.5;0.0062
704.6;0.0063
704.7;0.0062
704.8;0.0062
704.9;0.0063
705.0;0.0061
705.1;0.0064
705.2;0.0062
705.3;0.0062
705.4;0.0064
705.5;0.0062
705.6;0.0064
705.7;0.0062
705.8;0.0065
705.9;0.0063
706.0;0.0063
706.1;0.0062
706.2;0.0063
706.3;0.0064
706.4;0.0062
706.5;0.0065
706.6;0.0062
706.7;0.0063
706.8;0.0063
706.9;0.0063
707.0;0.0063
707.1;0.0063
707.2;0.0061
707.3;0.0064
707.4;0.0063
707.5;0.0062
707.6;0.0064
707.7;0.0061
707.8;0.0062
707.9;0.0062
708.0;0.0061
708.1;0.0063
708.2;0.0062
708.3;0.0062
708.4;0.0063
708.5;0.0061
708.6;0.0062
708.7;0.0062
708.8;0.0061
708.9;0.0061
709.0;0.0061
709.1;0.0063
709.2;0.0062
709.3;0.0065
709.4;0.0060
709.5;0.0062
709.6;0.0061
709.7;0.0061
709.8;0.0061
709.9;0.0062
710.0;0.0062
710.1;0.0063
710.2;0.0063
710.3;0.0062
710.4;0.0061
710.5;0.0062
710.6;0.0061
710.7;0.0061
710.8;0.0061
710.9;0.0062
711.0;0.0060
711.1;0.0063
711.2;0.0063
711.3;0.0061
711.4;0.0062
711.5;0.0061
711.6;0.0061
711.7;0.0063
711.8;0.0061
711.9;0.0061
712.0;0.0060
712.1;0.0062
712.2;0.0061
712.3;0.0062
712.4;0.0062
712.5;0.0062
712.6;0.0061
712.7;0.0061
712.8;0.0062
712.9;0.0063
713.0;0.0061
713.1;0.0061
713.2;0.0062
713.3;0.0061
713.4;0.0060
713.5;0.0063
713.6;0.0062
713.7;0.0062
713.8;0.0060
713.9;0.0062
714.0;0.0062
714.1;0.0063
714.2;0.0062
714.3;0.0059
714.4;0.0059
714.5;0.0061
714.6;0.0061
714.7;0.0061
714.8;0.0061
714.9;0.0061
715.0;0.0060
715.1;0.0059
715.2;0.0061
715.3;0.0061
715.4;0.0060
715.5;0.0059
715.6;0.0060
715.7;0.0060
715.8;0.0060
715.9;0.0061
716.0;0.0062
716.1;0.0061
716.2;0.0061
716.3;0.0061
716.4;0.0063
716.5;0.0061
716.6;0.0061
716.7;0.0061
716.8;0.0062
716.9;0.0060
717.0;0.0060
717.1;0.0060
717.2;0.0059
717.3;0.0061
717.4;0.0061
717.5;0.0062
717.6;0.0059
717.7;0.0060
717.8;0.0061
717.9;0.0062
718.0;0.0060
718.1;0.0062
718.2;0.0060
718.3;0.0060
718.4;0.0063
718.5;0.0061
718.6;0.0059
718.7;0.0061
718.8;0.0060
718.9;0.0062
719.0;0.0059
719.1;0.0059
719.2;0.0060
719.3;0.0061
719.4;0.0061
719.5;0.0060
719.6;0.0060
719.7;0.0059
719.8;0.0059
719.9;0.0062
720.0;0.0059
720.1;0.0059
720.2;0.0060
720.3;0.0059
720.4;0.0061
720.5;0.0060
720.6;0.0058
720.7;0.0060
720.8;0.0062
720.9;0.0060
721.0;0.0060
721.1;0.0060
721.2;0.0061
721.3;0.0060
721.4;0.0059
721.5;0.0060
721.6;0.0060
721.7;0.0060
721.8;0.0060
721.9;0.0058
722.0;0.0062
722.1;0.0057
722.2;0.0060
722.3;0.0060
722.4;0.0059
722.5;0.0059
722.6;0.0060
722.7;0.0059
722.8;0.0060
722.9;0.0060
723.0;0.0060
723.1;0.0059
723.2;0.0058
723.3;0.0059
723.4;0.0059
723.5;0.0059
723.6;0.0059
723.7;0.0059
723.8;0.0059
723.9;0.0061
724.0;0.0059
724.1;0.0059
724.2;0.0058
724.3;0.0061
724.4;0.0060
724.5;0.0058
724.6;0.0060
724.7;0.0061
724.8;0.0059
724.9;0.0059
725.0;0.0059
725.1;0.0059
725.2;0.0057
725.3;0.0058
725.4;0.0058
725.5;0.0060
725.6;0.0058
725.7;0.0059
725.8;0.0059
725.9;0.0059
726.0;0.0059
726.1;0.0059
726.2;0.0060
726.3;0.0060
726.4;0.0058
726.5;0.0058
726.6;0.0058
726.7;0.0059
726.8;0.0056
726.9;0.0060
727.0;0.0058
727.1;0.0059
727.2;0.0057
727.3;0.0058
727.4;0.0060
727.5;0.0058
727.6;0.0060
727.7;0.0059
727.8;0.0057
727.9;0.0059
728.0;0.0058
728.1;0.0059
728.2;0.0058
728.3;0.0059
728.4;0.0059
728.5;0.0060
728.6;0.0059
728.7;0.0057
728.8;0.0058
728.9;0.0058
729.0;0.0059
729.1;0.0058
729.2;0.0060
729.3;0.0059
729.4;0.0057
729.5;0.0059
729.6;0.0058
729.7;0.0058
729.8;0.0059
729.9;0.0057
730.0;0.0057
730.1;0.0059
730.2;0.0058
730.3;0.0058
730.4;0.0058
730.5;0.0057
730.6;0.0058
730.7;0.0059
730.8;0.0059
730.9;0.0057
731.0;0.0058
731.1;0.0058
731.2;0.0059
731.3;0.0058
731.4;0.0057
731.5;0.0058
731.6;0.0058
731.7;0.0060
731.8;0.0058
731.9;0.0057
732.0;0.0057
732.1;0.0058
732.2;0.0057
732.3;0.0059
732.4;0.0058
732.5;0.0059
732.6;0.0058
732.7;0.0058
732.8;0.0058
732.9;0.0056
733.0;0.0058
733.1;0.0059
733.2;0.0058
733.3;0.0058
733.4;0.0057
733.5;0.0059
733.6;0.0057
733.7;0.0057
733.8;0.0057
733.9;0.0056
734.0;0.0058
734.1;0.0056
734.2;0.0058
734.3;0.0056
734.4;0.0055
734.5;0.0057
734.6;0.0057
734.7;0.0058
734.8;0.0057
734.9;0.0060
735.0;0.0058
735.1;0.0057
735.2;0.0058
735.3;0.0058
735.4;0.0058
735.5;0.0057
735.6;0.0058
735.7;0.0055
735.8;0.0057
735.9;0.0057
736.0;0.0059
736.1;0.0056
736.2;0.0058
736.3;0.0057
736.4;0.0055
736.5;0.0057
736.6;0.0059
736.7;0.0058
736.8;0.0058
736.9;0.0059
737.0;0.0057
737.1;0.0056
737.2;0.0056
737.3;0.0057
737.4;0.0056
737.5;0.0056
737.6;0.0058
737.7;0.0057
737.8;0.0058
737.9;0.0058
738.0;0.0058
738.1;0.0058
738.2;0.0055
738.3;0.0058
738.4;0.0058
738.5;0.0058
738.6;0.0056
738.7;0.0058
738.8;0.0058
738.9;0.0058
739.0;0.0057
739.1;0.0056
739.2;0.0056
739.3;0.0057
739.4;0.0058
739.5;0.0056
739.6;0.0056
739.7;0.0056
739.8;0.0056
739.9;0.0056
740.0;0.0057
740.1;0.0056
740.2;0.0058
740.3;0.0057
740.4;0.0055
740.5;0.0056
740.6;0.0059
740.7;0.0055
740.8;0.0058
740.9;0.0057
741.0;0.0057
741.1;0.0057
741.2;0.0056
741.3;0.0056
741.4;0.0057
741.5;0.0058
741.6;0.0057
741.7;0.0058
741.8;0.0056
741.9;0.0056
742.0;0.0056
742.1;0.0056
742.2;0.0058
742.3;0.0057
742.4;0.0056
742.5;0.0055
742.6;0.0055
742.7;0.0058
742.8;0.0056
742.9;0.0056
743.0;0.0057
743.1;0.0057
743.2;0.0058
743.3;0.0056
743.4;0.0057
743.5;0.0057
743.6;0.0056
743.7;0.0056
743.8;0.0057
743.9;0.0057
744.0;0.0056
744.1;0.0054
744.2;0.0056
744.3;0.0057
744.4;0.0055
744.5;0.0056
744.6;0.0055
744.7;0.0056
744.8;0.0056
744.9;0.0055
745.0;0.0057
745.1;0.0055
745.2;0.0057
745.3;0.0056
745.4;0.0057
745.5;0.0056
745.6;0.0056
745.7;0.0054
745.8;0.0057
745.9;0.0054
746.0;0.0055
746.1;0.0056
746.2;0.0056
746.3;0.0055
746.4;0.0055
746.5;0.0056
746.6;0.0056
746.7;0.0056
746.8;0.0055
746.9;0.0057
747.0;0.0057
747.1;0.0055
747.2;0.0056
747.3;0.0055
747.4;0.0056
747.5;0.0056
747.6;0.0056
747.7;0.0054
747.8;0.0054
747.9;0.0055
748.0;0.0056
748.1;0.0055
748.2;0.0057
748.3;0.0055
748.4;0.0056
748.5;0.0056
748.6;0.0057
748.7;0.0055
748.8;0.0054
748.9;0.0056
749.0;0.0056
749.1;0.0054
749.2;0.0056
749.3;0.0056
749.4;0.0055
749.5;0.0056
749.6;0.0056
749.7;0.0055
749.8;0.0056
749.9;0.0055
750.0;0.0057
750.1;0.0054
750.2;0.0055
750.3;0.0056
750.4;0.0055
750.5;0.0057
750.6;0.0054
750.7;0.0055
750.8;0.0056
750.9;0.0055
751.0;0.0054
751.1;0.0056
751.2;0.0055
751.3;0.0055
751.4;0.0056
751.5;0.0055
751.6;0.0055
751.7;0.0056
751.8;0.0056
751.9;0.0055
752.0;0.0055
752.1;0.0055
752.2;0.0054
752.3;0.0055
752.4;0.0055
752.5;0.0054
752.6;0.0056
752.7;0.0055
752.8;0.0053
752.9;0.0055
753.0;0.0055
753.1;0.0056
753.2;0.0056
753.3;0.0055
753.4;0.0055
753.5;0.0055
753.6;0.0056
753.7;0.0055
753.8;0.0056
753.9;0.0054
754.0;0.0054
754.1;0.0056
754.2;0.0056
754.3;0.0055
754.4;0.0055
754.5;0.0057
754.6;0.0054
754.7;0.0054
754.8;0.0056
754.9;0.0054
755.0;0.0053
755.1;0.0057
755.2;0.0057
755.3;0.0055
755.4;0.0055
755.5;0.0055
755.6;0.0054
755.7;0.0056
755.8;0.0055
755.9;0.0055
756.0;0.0053
756.1;0.0055
756.2;0.0055
756.3;0.0056
756.4;0.0054
756.5;0.0053
756.6;0.0055
756.7;0.0054
756.8;0.0055
756.9;0.0055
757.0;0.0053
757.1;0.0056
757.2;0.0054
757.3;0.0056
757.4;0.0056
757.5;0.0056
757.6;0.0057
757.7;0.0055
757.8;0.0054
757.9;0.0054
758.0;0.0055
758.1;0.0054
758.2;0.0056
758.3;0.0053
758.4;0.0054
758.5;0.0053
758.6;0.0054
758.7;0.0054
758.8;0.0055
758.9;0.0052
759.0;0.0054
759.1;0.0055
759.2;0.0055
759.3;0.0053
759.4;0.0053
759.5;0.0056
759.6;0.0053
759.7;0.0056
759.8;0.0054
759.9;0.0055
760.0;0.0056
760.1;0.0055
760.2;0.0054
760.3;0.0055
760.4;0.0056
760.5;0.0055
760.6;0.0053
760.7;0.0053
760.8;0.0054
760.9;0.0056
761.0;0.0054
761.1;0.0053
761.2;0.0056
761.3;0.0053
761.4;0.0055
761.5;0.0054
761.6;0.0054
761.7;0.0055
761.8;0.0053
761.9;0.0054
762.0;0.0053
762.1;0.0056
762.2;0.0054
762.3;0.0053
762.4;0.0056
762.5;0.0055
762.6;0.0055
762.7;0.0054
762.8;0.0053
762.9;0.0054
763.0;0.0057
763.1;0.0053
763.2;0.0055
763.3;0.0055
763.4;0.0052
763.5;0.0055
763.6;0.0053
763.7;0.0054
763.8;0.0055
763.9;0.0055
764.0;0.0055
764.1;0.0052
764.2;0.0055
764.3;0.0054
764.4;0.0056
764.5;0.0055
764.6;0.0055
764.7;0.0053
764.8;0.0056
764.9;0.0054
765.0;0.0053
765.1;0.0053
765.2;0.0054
765.3;0.0054
765.4;0.0057
765.5;0.0052
765.6;0.0053
765.7;0.0055
765.8;0.0055
765.9;0.0054
766.0;0.0056
766.1;0.0053
766.2;0.0053
766.3;0.0055
766.4;0.0053
766.5;0.0053
766.6;0.0056
766.7;0.0055
766.8;0.0054
766.9;0.0054
767.0;0.0053
767.1;0.0055
767.2;0.0054
767.3;0.0053
767.4;0.0055
767.5;0.0054
767.6;0.0054
767.7;0.0053
767.8;0.0055
767.9;0.0054
768.0;0.0055
768.1;0.0054
768.2;0.0055
768.3;0.0054
768.4;0.0054
768.5;0.0055
768.6;0.0055
768.7;0.0054
768.8;0.0054
768.9;0.0054
769.0;0.0054
769.1;0.0056
769.2;0.0054
769.3;0.0056
769.4;0.0053
769.5;0.0054
769.6;0.0054
769.7;0.0056
769.8;0.0056
769.9;0.0053
770.0;0.0054
770.1;0.0054
770.2;0.0054
770.3;0.0053
770.4;0.0054
770.5;0.0056
770.6;0.0053
770.7;0.0056
770.8;0.0053
770.9;0.0054
771.0;0.0053
771.1;0.0056
771.2;0.0053
771.3;0.0054
771.4;0.0055
771.5;0.0054
771.6;0.0055
771.7;0.0054
771.8;0.0056
771.9;0.0053
772.0;0.0056
772.1;0.0054
772.2;0.0054
772.3;0.0055
772.4;0.0054
772.5;0.0053
772.6;0.0055
772.7;0.0054
772.8;0.0054
772.9;0.0053
773.0;0.0054
773.1;0.0054
773.2;0.0056
773.3;0.0054
773.4;0.0054
773.5;0.0052
773.6;0.0054
773.7;0.0054
773.8;0.0053
773.9;0.0053
774.0;0.0053
774.1;0.0054
774.2;0.0053
774.3;0.0054
774.4;0.0054
774.5;0.0054
774.6;0.0055
774.7;0.0055
774.8;0.0053
774.9;0.0055
775.0;0.0054
775.1;0.0053
775.2;0.0054
775.3;0.0054
775.4;0.0053
775.5;0.0054
775.6;0.0053
775.7;0.0054
775.8;0.0053
775.9;0.0053
776.0;0.0054
776.1;0.0053
776.2;0.0052
776.3;0.0055
776.4;0.0051
776.5;0.0054
776.6;0.0054
776.7;0.0053
776.8;0.0054
776.9;0.0054
777.0;0.0055
777.1;0.0053
777.2;0.0052
777.3;0.0054
777.4;0.0055
777.5;0.0055
777.6;0.0054
777.7;0.0055
777.8;0.0055
777.9;0.0053
778.0;0.0055
778.1;0.0055
778.2;0.0054
778.3;0.0052
778.4;0.0055
778.5;0.0051
778.6;0.0053
778.7;0.0054
778.8;0.0055
778.9;0.0054
779.0;0.0054
779.1;0.0054
779.2;0.0053
779.3;0.0054
779.4;0.0053
779.5;0.0055
779.6;0.0052
779.7;0.0055
779.8;0.0054
779.9;0.0052
780.0;0.0054
780.1;0.0053
780.2;0.0053
780.3;0.0052
780.4;0.0054
780.5;0.0054
780.6;0.0055
780.7;0.0055
780.8;0.0052
780.9;0.0053
781.0;0.0052
781.1;0.0051
781.2;0.0054
781.3;0.0053
781.4;0.0054
781.5;0.0054
781.6;0.0053
781.7;0.0054
781.8;0.0053
781.9;0.0051
782.0;0.0052
782.1;0.0055
782.2;0.0053
782.3;0.0053
782.4;0.0055
782.5;0.0055
782.6;0.0054
782.7;0.0053
782.8;0.0053
782.9;0.0053
783.0;0.0053
783.1;0.0056
783.2;0.0052
783.3;0.0055
783.4;0.0055
783.5;0.0053
783.6;0.0055
783.7;0.0053
783.8;0.0054
783.9;0.0056
784.0;0.0053
784.1;0.0053
784.2;0.0052
784.3;0.0053
784.4;0.0054
784.5;0.0054
784.6;0.0053
784.7;0.0053
784.8;0.0054
784.9;0.0053
785.0;0.0054
785.1;0.0054
785.2;0.0053
785.3;0.0053
785.4;0.0051
785.5;0.0053
785.6;0.0054
785.7;0.0054
785.8;0.0054
785.9;0.0053
786.0;0.0054
786.1;0.0053
786.2;0.0052
786.3;0.0053
786.4;0.0055
786.5;0.0052
786.6;0.0053
786.7;0.0052
786.8;0.0052
786.9;0.0055
787.0;0.0052
787.1;0.0053
787.2;0.0050
787.3;0.0054
787.4;0.0054
787.5;0.0053
787.6;0.0053
787.7;0.0052
787.8;0.0053
787.9;0.0052
788.0;0.0055
788.1;0.0051
788.2;0.0054
788.3;0.0051
788.4;0.0053
788.5;0.0050
788.6;0.0054
788.7;0.0053
788.8;0.0054
788.9;0.0052
789.0;0.0053
789.1;0.0052
789.2;0.0053
789.3;0.0054
789.4;0.0052
789.5;0.0055
789.6;0.0055
789.7;0.0054
789.8;0.0052
789.9;0.0052
790.0;0.0053
790.1;0.0055
790.2;0.0055
790.3;0.0053
790.4;0.0052
790.5;0.0052
790.6;0.0053
790.7;0.0052
790.8;0.0053
790.9;0.0051
791.0;0.0053
791.1;0.0052
791.2;0.0051
791.3;0.0052
791.4;0.0051
791.5;0.0052
791.6;0.0051
791.7;0.0053
791.8;0.0054
791.9;0.0053
792.0;0.0054
792.1;0.0053
792.2;0.0052
792.3;0.0053
792.4;0.0052
792.5;0.0054
792.6;0.0053
792.7;0.0054
792.8;0.0052
792.9;0.0053
793.0;0.0052
793.1;0.0054
793.2;0.0052
793.3;0.0051
793.4;0.0052
793.5;0.0052
793.6;0.0050
793.7;0.0053
793.8;0.0055
793.9;0.0052
794.0;0.0052
794.1;0.0054
794.2;0.0052
794.3;0.0052
794.4;0.0053
794.5;0.0052
794.6;0.0054
794.7;0.0051
794.8;0.0052
794.9;0.0054
795.0;0.0051
795.1;0.0051
795.2;0.0055
795.3;0.0054
795.4;0.0050
795.5;0.0052
795.6;0.0052
795.7;0.0052
795.8;0.0051
795.9;0.0053
796.0;0.0052
796.1;0.0051
796.2;0.0052
796.3;0.0050
796.4;0.0051
796.5;0.0051
796.6;0.0050
796.7;0.0052
796.8;0.0051
796.9;0.0052
797.0;0.0051
797.1;0.0051
797.2;0.0052
797.3;0.0052
797.4;0.0051
797.5;0.0051
797.6;0.0051
797.7;0.0051
797.8;0.0052
797.9;0.0051
798.0;0.0052
798.1;0.0051
798.2;0.0053
798.3;0.0048
798.4;0.0051
798.5;0.0051
798.6;0.0053
798.7;0.0051
798.8;0.0052
798.9;0.0051
799.0;0.0052
799.1;0.0053
799.2;0.0053
799.3;0.0052
799.4;0.0052
799.5;0.0051
799.6;0.0051
799.7;0.0052
799.8;0.0051
799.9;0.0052
800.0;0.0052
800.1;0.0051
800.2;0.0049
800.3;0.0052
800.4;0.0051
800.5;0.0053
800.6;0.0052
800.7;0.0049
800.8;0.0052
800.9;0.0050
801.0;0.0052
801.1;0.0052
801.2;0.0053
801.3;0.0050
801.4;0.0051
801.5;0.0049
801.6;0.0052
801.7;0.0051
801.8;0.0052
801.9;0.0051
802.0;0.0053
802.1;0.0051
802.2;0.0051
802.3;0.0052
802.4;0.0052
802.5;0.0050
802.6;0.0050
802.7;0.0049
802.8;0.0051
802.9;0.0051
803.0;0.0049
803.1;0.0051
803.2;0.0050
803.3;0.0051
803.4;0.0052
803.5;0.0050
803.6;0.0051
803.7;0.0050
803.8;0.0051
803.9;0.0051
804.0;0.0051
804.1;0.0048
804.2;0.0048
804.3;0.0052
804.4;0.0050
804.5;0.0051
804.6;0.0052
804.7;0.0051
804.8;0.0051
804.9;0.0051
805.0;0.0051
805.1;0.0050
805.2;0.0050
805.3;0.0049
805.4;0.0049
805.5;0.0051
805.6;0.0051
805.7;0.0051
805.8;0.0050
805.9;0.0049
806.0;0.0050
806.1;0.0051
806.2;0.0051
806.3;0.0051
806.4;0.0051
806.5;0.0050
806.6;0.0050
806.7;0.0051
806.8;0.0050
806.9;0.0051
807.0;0.0050
807.1;0.0051
807.2;0.0051
807.3;0.0049
807.4;0.0051
807.5;0.0049
807.6;0.0052
807.7;0.0050
807.8;0.0052
807.9;0.0051
808.0;0.0051
808.1;0.0050
808.2;0.0051
808.3;0.0051
808.4;0.0050
808.5;0.0050
808.6;0.0051
808.7;0.0050
808.8;0.0050
808.9;0.0049
809.0;0.0051
809.1;0.0050
809.2;0.0052
809.3;0.0051
809.4;0.0050
809.5;0.0050
809.6;0.0052
809.7;0.0049
809.8;0.0050
809.9;0.0050
810.0;0.0051
810.1;0.0050
810.2;0.0050
810.3;0.0052
810.4;0.0051
810.5;0.0050
810.6;0.0051
810.7;0.0051
810.8;0.0050
810.9;0.0050
811.0;0.0050
811.1;0.0049
811.2;0.0048
811.3;0.0049
811.4;0.0049
811.5;0.0050
811.6;0.0049
811.7;0.0050
811.8;0.0051
811.9;0.0049
812.0;0.0051
812.1;0.0050
812.2;0.0050
812.3;0.0049
812.4;0.0050
812.5;0.0050
812.6;0.0050
812.7;0.0050
812.8;0.0050
812.9;0.0052
813.0;0.0050
813.1;0.0050
813.2;0.0048
813.3;0.0051
813.4;0.0050
813.5;0.0050
813.6;0.0050
813.7;0.0050
813.8;0.0050
813.9;0.0051
814.0;0.0052
814.1;0.0050
814.2;0.0049
814.3;0.0049
814.4;0.0049
814.5;0.0050
814.6;0.0049
814.7;0.0050
814.8;0.0050
814.9;0.0050
815.0;0.0048
815.1;0.0050
815.2;0.0051
815.3;0.0049
815.4;0.0049
815.5;0.0049
815.6;0.0050
815.7;0.0049
815.8;0.0049
815.9;0.0049
816.0;0.0049
816.1;0.0051
816.2;0.0050
816.3;0.0049
816.4;0.0050
816.5;0.0051
816.6;0.0049
816.7;0.0047
816.8;0.0046
816.9;0.0049
817.0;0.0049
817.1;0.0050
817.2;0.0048
817.3;0.0049
817.4;0.0050
817.5;0.0050
817.6;0.0051
817.7;0.0051
817.8;0.0049
817.9;0.0049
818.0;0.0049
818.1;0.0051
818.2;0.0050
818.3;0.0050
818.4;0.0052
818.5;0.0048
818.6;0.0050
818.7;0.0048
818.8;0.0050
818.9;0.0048
819.0;0.0050
819.1;0.0050
819.2;0.0050
819.3;0.0049
819.4;0.0051
819.5;0.0050
819.6;0.0049
819.7;0.0050
819.8;0.0050
819.9;0.0050
820.0;0.0049
820.1;0.0047
820.2;0.0049
820.3;0.0051
820.4;0.0049
820.5;0.0049
820.6;0.0049
820.7;0.0049
820.8;0.0050
820.9;0.0048
821.0;0.0051
821.1;0.0050
821.2;0.0050
821.3;0.0049
821.4;0.0049
821.5;0.0049
821.6;0.0050
821.7;0.0048
821.8;0.0049
821.9;0.0050
822.0;0.0049
822.1;0.0048
822.2;0.0051
822.3;0.0048
822.4;0.0050
822.5;0.0049
822.6;0.0050
822.7;0.0050
822.8;0.0049
822.9;0.0051
823.0;0.0049
823.1;0.0048
823.2;0.0049
823.3;0.0048
823.4;0.0052
823.5;0.0047
823.6;0.0050
823.7;0.0049
823.8;0.0049
823.9;0.0048
824.0;0.0049
824.1;0.0049
824.2;0.0049
824.3;0.0050
824.4;0.0049
824.5;0.0047
824.6;0.0049
824.7;0.0049
824.8;0.0050
824.9;0.0051
825.0;0.0047
825.1;0.0049
825.2;0.0049
825.3;0.0050
825.4;0.0050
825.5;0.0049
825.6;0.0048
825.7;0.0050
825.8;0.0048
825.9;0.0050
826.0;0.0048
826.1;0.0050
826.2;0.0049
826.3;0.0049
826.4;0.0048
826.5;0.0048
826.6;0.0048
826.7;0.0047
826.8;0.0048
826.9;0.0050
827.0;0.0048
827.1;0.0049
827.2;0.0048
827.3;0.0047
827.4;0.0047
827.5;0.0049
827.6;0.0048
827.7;0.0050
827.8;0.0049
827.9;0.0048
828.0;0.0048
828.1;0.0049
828.2;0.0049
828.3;0.0051
828.4;0.0050
828.5;0.0048
828.6;0.0047
828.7;0.0049
828.8;0.0049
828.9;0.0048
829.0;0.0048
829.1;0.0049
829.2;0.0049
829.3;0.0049
829.4;0.0050
829.5;0.0049
829.6;0.0048
829.7;0.0049
829.8;0.0049
829.9;0.0050
830.0;0.0050
830.1;0.0050
830.2;0.0049
830.3;0.0050
830.4;0.0049
830.5;0.0049
830.6;0.0047
830.7;0.0050
830.8;0.0049
830.9;0.0051
831.0;0.0049
831.1;0.0049
831.2;0.0050
831.3;0.0051
831.4;0.0050
831.5;0.0050
831.6;0.0050
831.7;0.0051
831.8;0.0051
831.9;0.0049
832.0;0.0049
832.1;0.0049
832.2;0.0050
832.3;0.0049
832.4;0.0050
832.5;0.0048
832.6;0.0049
832.7;0.0050
832.8;0.0048
832.9;0.0050
833.0;0.0050
833.1;0.0050
833.2;0.0050
833.3;0.0049
833.4;0.0049
833.5;0.0050
833.6;0.0048
833.7;0.0050
833.8;0.0050
833.9;0.0050
834.0;0.0050
834.1;0.0050
834.2;0.0050
834.3;0.0050
834.4;0.0051
834.5;0.0050
834.6;0.0049
834.7;0.0050
834.8;0.0050
834.9;0.0050
835.0;0.0049
835.1;0.0051
835.2;0.0049
835.3;0.0050
835.4;0.0050
835.5;0.0050
835.6;0.0049
835.7;0.0050
835.8;0.0050
835.9;0.0051
836.0;0.0050
836.1;0.0050
836.2;0.0050
836.3;0.0050
836.4;0.0050
836.5;0.0049
836.6;0.0051
836.7;0.0051
836.8;0.0051
836.9;0.0050
837.0;0.0048
837.1;0.0050
837.2;0.0049
837.3;0.0049
837.4;0.0051
837.5;0.0051
837.6;0.0050
837.7;0.0050
837.8;0.0049
837.9;0.0050
838.0;0.0050
838.1;0.0049
838.2;0.0049
838.3;0.0050
838.4;0.0050
838.5;0.0050
838.6;0.0050
838.7;0.0050
838.8;0.0050
838.9;0.0050
839.0;0.0051
839.1;0.0050
839.2;0.0050
839.3;0.0050
839.4;0.0050
839.5;0.0050
839.6;0.0050
839.7;0.0050
839.8;0.0049
839.9;0.0050
840.0;0.0050
840.1;0.0050
840.2;0.0049
840.3;0.0050
840.4;0.0050
840.5;0.0050
840.6;0.0049
840.7;0.0050
840.8;0.0050
840.9;0.0049
841.0;0.0050
841.1;0.0050
841.2;0.0050
841.3;0.0051
841.4;0.0050
841.5;0.0050
841.6;0.0050
841.7;0.0050
841.8;0.0051
841.9;0.0050
842.0;0.0049
842.1;0.0049
842.2;0.0049
842.3;0.0051
842.4;0.0051
842.5;0.0049
842.6;0.0050
842.7;0.0050
842.8;0.0049
842.9;0.0050
843.0;0.0049
843.1;0.0050
843.2;0.0051
843.3;0.0050
843.4;0.0049
843.5;0.0050
843.6;0.0050
843.7;0.0050
843.8;0.0049
843.9;0.0050
844.0;0.0050
844.1;0.0050
844.2;0.0049
844.3;0.0049
844.4;0.0049
844.5;0.0050
844.6;0.0051
844.7;0.0049
844.8;0.0049
844.9;0.0051
845.0;0.0049
845.1;0.0050
845.2;0.0050
845.3;0.0050
845.4;0.0050
845.5;0.0050
845.6;0.0049
845.7;0.0049
845.8;0.0049
845.9;0.0051
846.0;0.0049
846.1;0.0048
846.2;0.0050
846.3;0.0050
846.4;0.0051
846.5;0.0050
846.6;0.0051
846.7;0.0048
846.8;0.0049
846.9;0.0050
847.0;0.0050
847.1;0.0050
847.2;0.0049
847.3;0.0049
847.4;0.0050
847.5;0.0048
847.6;0.0050
847.7;0.0050
847.8;0.0049
847.9;0.0050
848.0;0.0049
848.1;0.0051
848.2;0.0049
848.3;0.0050
848.4;0.0049
848.5;0.0049
848.6;0.0050
848.7;0.0048
848.8;0.0048
848.9;0.0049
849.0;0.0050
849.1;0.0049
849.2;0.0049
849.3;0.0049
849.4;0.0049
849.5;0.0050
849.6;0.0050
849.7;0.0049
849.8;0.0050
849.9;0.0051
850.0;0.0049
850.1;0.0050
850.2;0.0049
850.3;0.0048
850.4;0.0049
850.5;0.0049
850.6;0.0049
850.7;0.0049
850.8;0.0049
850.9;0.0050
851.0;0.0051
851.1;0.0050
851.2;0.0050
851.3;0.0049
851.4;0.0049
851.5;0.0050
851.6;0.0050
851.7;0.0051
851.8;0.0049
851.9;0.0050
852.0;0.0049
852.1;0.0049
852.2;0.0049
852.3;0.0050
852.4;0.0051
852.5;0.0050
852.6;0.0049
852.7;0.0050
852.8;0.0051
852.9;0.0048
853.0;0.0049
853.1;0.0051
853.2;0.0050
853.3;0.0049
853.4;0.0048
853.5;0.0049
853.6;0.0051
853.7;0.0049
853.8;0.0048
853.9;0.0050
854.0;0.0050
854.1;0.0049
854.2;0.0050
854.3;0.0050
854.4;0.0049
854.5;0.0049
854.6;0.0051
854.7;0.0051
854.8;0.0050
854.9;0.0048
855.0;0.0048
855.1;0.0048
855.2;0.0048
855.3;0.0050
855.4;0.0048
855.5;0.0050
855.6;0.0051
855.7;0.0048
855.8;0.0050
855.9;0.0048
856.0;0.0049
856.1;0.0048
856.2;0.0051
856.3;0.0050
856.4;0.0049
856.5;0.0047
856.6;0.0049
856.7;0.0048
856.8;0.0050
856.9;0.0049
857.0;0.0050
857.1;0.0050
857.2;0.0049
857.3;0.0049
857.4;0.0048
857.5;0.0049
857.6;0.0050
857.7;0.0049
857.8;0.0051
857.9;0.0051
858.0;0.0049
858.1;0.0050
858.2;0.0049
858.3;0.0051
858.4;0.0051
858.5;0.0050
858.6;0.0049
858.7;0.0050
858.8;0.0049
858.9;0.0049
859.0;0.0051
859.1;0.0048
859.2;0.0048
859.3;0.0048
859.4;0.0050
859.5;0.0049
859.6;0.0047
859.7;0.0050
859.8;0.0051
859.9;0.0050
860.0;0.0049
860.1;0.0049
860.2;0.0051
860.3;0.0048
860.4;0.0052
860.5;0.0050
860.6;0.0050
860.7;0.0051
860.8;0.0048
860.9;0.0048
861.0;0.0049
861.1;0.0048
861.2;0.0051
861.3;0.0049
861.4;0.0049
861.5;0.0049
861.6;0.0049
861.7;0.0050
861.8;0.0050
861.9;0.0050
862.0;0.0049
862.1;0.0050
862.2;0.0051
862.3;0.0048
862.4;0.0050
862.5;0.0049
862.6;0.0051
862.7;0.0049
862.8;0.0049
862.9;0.0050
863.0;0.0048
863.1;0.0049
863.2;0.0050
863.3;0.0049
863.4;0.0050
863.5;0.0050
863.6;0.0049
863.7;0.0051
863.8;0.0049
863.9;0.0049
864.0;0.0049
864.1;0.0049
864.2;0.0050
864.3;0.0050
864.4;0.0048
864.5;0.0051
864.6;0.0049
864.7;0.0049
864.8;0.0050
864.9;0.0050
865.0;0.0049
865.1;0.0047
865.2;0.0051
865.3;0.0050
865.4;0.0048
865.5;0.0049
865.6;0.0049
865.7;0.0048
865.8;0.0048
865.9;0.0050
866.0;0.0050
866.1;0.0050
866.2;0.0050
866.3;0.0051
866.4;0.0049
866.5;0.0050
866.6;0.0050
866.7;0.0051
866.8;0.0050
866.9;0.0048
867.0;0.0051
867.1;0.0051
867.2;0.0050
867.3;0.0051
867.4;0.0050
867.5;0.0050
867.6;0.0049
867.7;0.0049
867.8;0.0049
867.9;0.0048
868.0;0.0049
868.1;0.0050
868.2;0.0049
868.3;0.0049
868.4;0.0049
868.5;0.0049
868.6;0.0050
868.7;0.0049
868.8;0.0049
868.9;0.0050
869.0;0.0050
869.1;0.0048
869.2;0.0050
869.3;0.0048
869.4;0.0049
869.5;0.0048
869.6;0.0051
869.7;0.0050
869.8;0.0049
869.9;0.0050
870.0;0.0048
870.1;0.0049
870.2;0.0050
870.3;0.0049
870.4;0.0048
870.5;0.0050
870.6;0.0048
870.7;0.0049
870.8;0.0047
870.9;0.0050
871.0;0.0047
871.1;0.0050
871.2;0.0049
871.3;0.0049
871.4;0.0051
871.5;0.0049
871.6;0.0049
871.7;0.0050
871.8;0.0050
871.9;0.0051
872.0;0.0050
872.1;0.0048
872.2;0.0049
872.3;0.0049
872.4;0.0049
872.5;0.0049
872.6;0.0049
872.7;0.0050
872.8;0.0048
872.9;0.0049
873.0;0.0050
873.1;0.0050
873.2;0.0049
873.3;0.0049
873.4;0.0050
873.5;0.0050
873.6;0.0049
873.7;0.0048
873.8;0.0048
873.9;0.0048
874.0;0.0049
874.1;0.0048
874.2;0.0048
874.3;0.0045
874.4;0.0049
874.5;0.0047
874.6;0.0049
874.7;0.0048
874.8;0.0050
874.9;0.0049
875.0;0.0048
875.1;0.0047
875.2;0.0050
875.3;0.0047
875.4;0.0047
875.5;0.0048
875.6;0.0047
875.7;0.0049
875.8;0.0048
875.9;0.0048
876.0;0.0049
876.1;0.0048
876.2;0.0046
876.3;0.0047
876.4;0.0048
876.5;0.0048
876.6;0.0049
876.7;0.0048
876.8;0.0049
876.9;0.0048
877.0;0.0048
877.1;0.0048
877.2;0.0048
877.3;0.0048
877.4;0.0047
877.5;0.0049
877.6;0.0049
877.7;0.0049
877.8;0.0047
877.9;0.0049
878.0;0.0048
878.1;0.0048
878.2;0.0049
878.3;0.0047
878.4;0.0048
878.5;0.0048
878.6;0.0046
878.7;0.0049
878.8;0.0047
878.9;0.0048
879.0;0.0049
879.1;0.0047
879.2;0.0048
879.3;0.0048
879.4;0.0048
879.5;0.0049
879.6;0.0048
879.7;0.0048
879.8;0.0049
879.9;0.0047
880.0;0.0047
880.1;0.0047
880.2;0.0048
880.3;0.0047
880.4;0.0048
880.5;0.0048
880.6;0.0048
880.7;0.0049
880.8;0.0047
880.9;0.0050
881.0;0.0047
881.1;0.0049
881.2;0.0047
881.3;0.0047
881.4;0.0049
881.5;0.0049
881.6;0.0048
881.7;0.0046
881.8;0.0048
881.9;0.0047
882.0;0.0048
882.1;0.0047
882.2;0.0048
882.3;0.0047
882.4;0.0047
882.5;0.0047
882.6;0.0048
882.7;0.0047
882.8;0.0048
882.9;0.0048
883.0;0.0047
883.1;0.0046
883.2;0.0048
883.3;0.0048
883.4;0.0047
883.5;0.0049
883.6;0.0047
883.7;0.0047
883.8;0.0048
883.9;0.0048
884.0;0.0046
884.1;0.0045
884.2;0.0050
884.3;0.0049
884.4;0.0048
884.5;0.0047
884.6;0.0045
884.7;0.0047
884.8;0.0047
884.9;0.0047
885.0;0.0049
885.1;0.0047
885.2;0.0047
885.3;0.0048
885.4;0.0047
885.5;0.0046
885.6;0.0047
885.7;0.0046
885.8;0.0047
885.9;0.0046
886.0;0.0046
886.1;0.0048
886.2;0.0047
886.3;0.0047
886.4;0.0047
886.5;0.0047
886.6;0.0047
886.7;0.0047
886.8;0.0045
886.9;0.0047
887.0;0.0046
887.1;0.0046
887.2;0.0047
887.3;0.0047
887.4;0.0048
887.5;0.0046
887.6;0.0046
887.7;0.0046
887.8;0.0048
887.9;0.0047
888.0;0.0047
888.1;0.0047
888.2;0.0047
888.3;0.0047
888.4;0.0048
888.5;0.0047
888.6;0.0046
888.7;0.0048
888.8;0.0048
888.9;0.0048
889.0;0.0048
889.1;0.0048
889.2;0.0046
889.3;0.0048
889.4;0.0048
889.5;0.0047
889.6;0.0046
889.7;0.0045
889.8;0.0049
889.9;0.0047
890.0;0.0047
890.1;0.0047
890.2;0.0046
890.3;0.0046
890.4;0.0047
890.5;0.0048
890.6;0.0047
890.7;0.0047
890.8;0.0046
890.9;0.0046
891.0;0.0047
891.1;0.0047
891.2;0.0044
891.3;0.0045
891.4;0.0046
891.5;0.0047
891.6;0.0046
891.7;0.0045
891.8;0.0048
891.9;0.0047
892.0;0.0047
892.1;0.0047
892.2;0.0046
892.3;0.0046
892.4;0.0046
892.5;0.0045
892.6;0.0045
892.7;0.0047
892.8;0.0049
892.9;0.0046
893.0;0.0046
893.1;0.0047
893.2;0.0046
893.3;0.0046
893.4;0.0048
893.5;0.0045
893.6;0.0047
893.7;0.0048
893.8;0.0046
893.9;0.0046
894.0;0.0046
894.1;0.0047
894.2;0.0045
894.3;0.0046
894.4;0.0047
894.5;0.0045
894.6;0.0046
894.7;0.0046
894.8;0.0047
894.9;0.0045
895.0;0.0045
895.1;0.0046
895.2;0.0047
895.3;0.0047
895.4;0.0046
895.5;0.0047
895.6;0.0047
895.7;0.0045
895.8;0.0047
895.9;0.0048
896.0;0.0047
896.1;0.0046
896.2;0.0045
896.3;0.0046
896.4;0.0046
896.5;0.0045
896.6;0.0046
896.7;0.0046
896.8;0.0044
896.9;0.0045
897.0;0.0046
897.1;0.0045
897.2;0.0047
897.3;0.0045
897.4;0.0046
897.5;0.0047
897.6;0.0044
897.7;0.0046
897.8;0.0047
897.9;0.0046
898.0;0.0046
898.1;0.0046
898.2;0.0044
898.3;0.0044
898.4;0.0047
898.5;0.0047
898.6;0.0046
898.7;0.0044
898.8;0.0044
898.9;0.0045
899.0;0.0046
899.1;0.0045
899.2;0.0046
899.3;0.0045
899.4;0.0045
899.5;0.0047
899.6;0.0043
899.7;0.0045
899.8;0.0045
899.9;0.0044
900.0;0.0045
