[nm];[A];
;Sample 1;
190.0;0.1451
190.5;-0.1326
191.0;-0.0957
191.5;0.1689
192.0;0.1032
192.5;-0.1376
193.0;-0.0468
193.5;0.1930
194.0;0.0293
194.5;0.1160
195.0;0.0136
195.5;-0.0011
196.0;0.0248
196.5;-0.0826
197.0;-0.0053
197.5;0.0340
198.0;0.0292
198.5;0.0448
199.0;0.0332
199.5;0.0291
200.0;0.0453
200.5;0.0557
201.0;0.0365
201.5;0.0367
202.0;0.0299
202.5;0.0247
203.0;0.0186
203.5;0.0149
204.0;0.0118
204.5;0.0056
205.0;0.0013
205.5;-0.0021
206.0;-0.0046
206.5;-0.0064
207.0;-0.0084
207.5;-0.0102
208.0;-0.0118
208.5;-0.0137
209.0;-0.0150
209.5;-0.0159
210.0;-0.0160
210.5;-0.0163
211.0;-0.0164
211.5;-0.0163
212.0;-0.0159
212.5;-0.0160
213.0;-0.0157
213.5;-0.0150
214.0;-0.0145
214.5;-0.0139
215.0;-0.0133
215.5;-0.0128
216.0;-0.0125
216.5;-0.0123
217.0;-0.0121
217.5;-0.0119
218.0;-0.0113
218.5;-0.0110
219.0;-0.0105
219.5;-0.0101
220.0;-0.0094
220.5;-0.0093
221.0;-0.0087
221.5;-0.0085
222.0;-0.0083
222.5;-0.0078
223.0;-0.0077
223.5;-0.0071
224.0;-0.0070
224.5;-0.0069
225.0;-0.0064
225.5;-0.0062
226.0;-0.0054
226.5;-0.0050
227.0;-0.0045
227.5;-0.0036
228.0;-0.0031
228.5;-0.0024
229.0;-0.0016
229.5;-0.0012
230.0;-0.0007
230.5;0.0001
231.0;0.0005
231.5;0.0012
232.0;0.0020
232.5;0.0026
233.0;0.0036
233.5;0.0046
234.0;0.0052
234.5;0.0058
235.0;0.0064
235.5;0.0070
236.0;0.0073
236.5;0.0073
237.0;0.0076
237.5;0.0075
238.0;0.0077
238.5;0.0080
239.0;0.0081
239.5;0.0080
240.0;0.0079
240.5;0.0075
241.0;0.0074
241.5;0.0079
242.0;0.0078
242.5;0.0075
243.0;0.0074
243.5;0.0071
244.0;0.0073
244.5;0.0072
245.0;0.0076
245.5;0.0076
246.0;0.0076
246.5;0.0079
247.0;0.0080
247.5;0.0080
248.0;0.0085
248.5;0.0088
249.0;0.0089
249.5;0.0091
250.0;0.0090
250.5;0.0094
251.0;0.0095
251.5;0.0096
252.0;0.0097
252.5;0.0095
253.0;0.0099
253.5;0.0099
254.0;0.0103
254.5;0.0102
255.0;0.0103
255.5;0.0102
256.0;0.0101
256.5;0.0099
257.0;0.0101
257.5;0.0107
258.0;0.0103
258.5;0.0109
259.0;0.0107
259.5;0.0100
260.0;0.0112
260.5;0.0102
261.0;0.0101
261.5;0.0099
262.0;0.0098
262.5;0.0095
263.0;0.0090
263.5;0.0089
264.0;0.0094
264.5;0.0087
265.0;0.0079
265.5;0.0077
266.0;0.0075
266.5;0.0075
267.0;0.0072
267.5;0.0071
268.0;0.0066
268.5;0.0068
269.0;0.0065
269.5;0.0061
270.0;0.0066
270.5;0.0060
271.0;0.0062
271.5;0.0055
272.0;0.0062
272.5;0.0055
273.0;0.0053
273.5;0.0059
274.0;0.0050
274.5;0.0057
275.0;0.0052
275.5;0.0064
276.0;0.0055
276.5;0.0050
277.0;0.0050
277.5;0.0047
278.0;0.0058
278.5;0.0053
279.0;0.0057
279.5;0.0047
280.0;0.0056
280.5;0.0048
281.0;0.0053
281.5;0.0047
282.0;0.0050
282.5;0.0052
283.0;0.0047
283.5;0.0055
284.0;0.0040
284.5;0.0054
285.0;0.0052
285.5;0.0047
286.0;0.0050
286.5;0.0050
287.0;0.0048
287.5;0.0039
288.0;0.0037
288.5;0.0046
289.0;0.0049
289.5;0.0035
290.0;0.0044
290.5;0.0051
291.0;0.0051
291.5;0.0038
292.0;0.0044
292.5;0.0040
293.0;0.0038
293.5;0.0037
294.0;0.0040
294.5;0.0033
295.0;0.0043
295.5;0.0038
296.0;0.0035
296.5;0.0040
297.0;0.0039
297.5;0.0039
298.0;0.0027
298.5;0.0046
299.0;0.0036
299.5;0.0046
300.0;0.0039
300.5;0.0045
301.0;0.0048
301.5;0.0041
302.0;0.0039
302.5;0.0047
303.0;0.0042
303.5;0.0040
304.0;0.0046
304.5;0.0040
305.0;0.0041
305.5;0.0043
306.0;0.0039
306.5;0.0043
307.0;0.0037
307.5;0.0049
308.0;0.0044
308.5;0.0038
309.0;0.0037
309.5;0.0043
310.0;0.0030
310.5;0.0031
311.0;0.0021
311.5;0.0043
312.0;0.0035
312.5;0.0033
313.0;0.0017
313.5;0.0026
314.0;0.0017
314.5;0.0026
315.0;0.0030
315.5;0.0024
316.0;0.0026
316.5;0.0028
317.0;0.0011
317.5;0.0022
318.0;0.0007
318.5;0.0009
319.0;0.0016
319.5;0.0010
320.0;-0.0004
320.5;0.0014
321.0;0.0023
321.5;0.0019
322.0;0.0025
322.5;0.0008
323.0;0.0015
323.5;0.0014
324.0;0.0002
324.5;0.0007
325.0;0.0005
325.5;0.0010
326.0;0.0011
326.5;0.0010
327.0;0.0005
327.5;0.0004
328.0;0.0006
328.5;0.0009
329.0;0.0011
329.5;0.0019
330.0;0.0011
330.5;0.0012
331.0;0.0014
331.5;0.0014
332.0;0.0018
332.5;0.0019
333.0;0.0013
333.5;0.0007
334.0;0.0031
334.5;0.0022
335.0;0.0011
335.5;0.0011
336.0;0.0013
336.5;0.0021
337.0;0.0024
337.5;0.0020
338.0;0.0022
338.5;0.0031
339.0;0.0027
339.5;0.0026
340.0;0.0022
340.5;0.0022
341.0;0.0027
341.5;0.0021
342.0;0.0023
342.5;0.0027
343.0;0.0028
343.5;0.0029
344.0;0.0028
344.5;0.0037
345.0;0.0036
345.5;0.0022
346.0;0.0037
346.5;0.0039
347.0;0.0041
347.5;0.0023
348.0;0.0033
348.5;0.0033
349.0;0.0034
349.5;0.0035
350.0;0.0046
350.5;0.0033
351.0;0.0038
351.5;0.0036
352.0;0.0042
352.5;0.0040
353.0;0.0042
353.5;0.0047
354.0;0.0041
354.5;0.0041
355.0;0.0038
355.5;0.0036
356.0;0.0035
356.5;0.0041
357.0;0.0045
357.5;0.0042
358.0;0.0038
358.5;0.0034
359.0;0.0034
359.5;0.0039
360.0;0.0031
360.5;0.0037
361.0;0.0033
361.5;0.0028
362.0;0.0037
362.5;0.0035
363.0;0.0032
363.5;0.0031
364.0;0.0035
364.5;0.0026
365.0;0.0025
365.5;0.0026
366.0;0.0031
366.5;0.0034
367.0;0.0023
367.5;0.0017
368.0;0.0020
368.5;0.0029
369.0;0.0017
369.5;0.0023
370.0;0.0002
370.5;0.0002
371.0;-0.0001
371.5;-0.0004
372.0;0.0001
372.5;-0.0002
373.0;-0.0005
373.5;-0.0002
374.0;0.0003
374.5;-0.0001
375.0;-0.0003
375.5;-0.0002
376.0;0.0000
376.5;-0.0004
377.0;-0.0006
377.5;0.0000
378.0;-0.0004
378.5;-0.0004
379.0;-0.0005
379.5;0.0003
380.0;-0.0008
380.5;-0.0006
381.0;-0.0005
381.5;-0.0007
382.0;-0.0009
382.5;0.0000
383.0;-0.0008
383.5;-0.0007
384.0;-0.0005
384.5;-0.0006
385.0;-0.0003
385.5;-0.0010
386.0;-0.0007
386.5;0.0000
387.0;-0.0004
387.5;-0.0010
388.0;-0.0007
388.5;-0.0001
389.0;-0.0005
389.5;-0.0004
390.0;-0.0001
390.5;-0.0006
391.0;-0.0005
391.5;-0.0004
392.0;-0.0001
392.5;-0.0009
393.0;-0.0008
393.5;-0.0001
394.0;-0.0001
394.5;-0.0006
395.0;-0.0002
395.5;-0.0005
396.0;-0.0005
396.5;-0.0005
397.0;-0.0001
397.5;-0.0002
398.0;-0.0005
398.5;-0.0005
399.0;-0.0002
399.5;-0.0004
400.0;-0.0006
400.5;-0.0003
401.0;-0.0006
401.5;-0.0004
402.0;-0.0005
402.5;-0.0005
403.0;-0.0003
403.5;-0.0002
404.0;-0.0005
404.5;-0.0003
405.0;-0.0004
405.5;-0.0003
406.0;-0.0005
406.5;-0.0005
407.0;-0.0001
407.5;-0.0006
408.0;0.0000
408.5;-0.0001
409.0;-0.0004
409.5;-0.0005
410.0;-0.0004
410.5;0.0000
411.0;-0.0006
411.5;0.0000
412.0;-0.0001
412.5;-0.0006
413.0;-0.0002
413.5;-0.0004
414.0;-0.0004
414.5;-0.0003
415.0;-0.0002
415.5;-0.0004
416.0;-0.0005
416.5;-0.0003
417.0;-0.0001
417.5;-0.0006
418.0;-0.0002
418.5;0.0003
419.0;-0.0002
419.5;-0.0004
420.0;-0.0006
420.5;-0.0004
421.0;-0.0003
421.5;-0.0003
422.0;-0.0005
422.5;-0.0004
423.0;-0.0007
423.5;-0.0003
424.0;-0.0004
424.5;-0.0003
425.0;-0.0003
425.5;-0.0004
426.0;-0.0008
426.5;-0.0005
427.0;-0.0005
427.5;-0.0006
428.0;-0.0003
428.5;-0.0004
429.0;-0.0005
429.5;-0.0004
430.0;-0.0006
430.5;-0.0008
431.0;-0.0003
431.5;-0.0008
432.0;-0.0005
432.5;-0.0007
433.0;-0.0006
433.5;-0.0008
434.0;-0.0005
434.5;-0.0008
435.0;-0.0007
435.5;-0.0006
436.0;-0.0007
436.5;-0.0007
437.0;-0.0008
437.5;-0.0007
438.0;-0.0009
438.5;-0.0005
439.0;-0.0008
439.5;-0.0006
440.0;-0.0006
440.5;-0.0008
441.0;-0.0009
441.5;-0.0007
442.0;-0.0005
442.5;-0.0008
443.0;-0.0008
443.5;-0.0009
444.0;-0.0007
444.5;-0.0006
445.0;-0.0008
445.5;-0.0003
446.0;-0.0004
446.5;-0.0008
447.0;-0.0006
447.5;-0.0005
448.0;-0.0005
448.5;-0.0006
449.0;-0.0006
449.5;-0.0009
450.0;-0.0004
450.5;-0.0007
451.0;-0.0007
451.5;-0.0004
452.0;-0.0002
452.5;-0.0002
453.0;-0.0004
453.5;-0.0006
454.0;-0.0004
454.5;-0.0005
455.0;-0.0002
455.5;-0.0002
456.0;-0.0003
456.5;-0.0003
457.0;-0.0002
457.5;-0.0006
458.0;-0.0003
458.5;-0.0003
459.0;-0.0003
459.5;-0.0002
460.0;0.0000
460.5;0.0002
461.0;-0.0002
461.5;0.0000
462.0;0.0004
462.5;0.0002
463.0;0.0001
463.5;0.0003
464.0;0.0004
464.5;0.0001
465.0;0.0001
465.5;0.0002
466.0;0.0001
466.5;0.0003
467.0;0.0004
467.5;0.0003
468.0;0.0004
468.5;-0.0001
469.0;0.0000
469.5;0.0004
470.0;0.0017
470.5;0.0019
471.0;0.0016
471.5;0.0018
472.0;0.0018
472.5;0.0018
473.0;0.0019
473.5;0.0019
474.0;0.0021
474.5;0.0021
475.0;0.0022
475.5;0.0021
476.0;0.0023
476.5;0.0024
477.0;0.0024
477.5;0.0023
478.0;0.0024
478.5;0.0026
479.0;0.0025
479.5;0.0026
480.0;0.0025
480.5;0.0027
481.0;0.0028
481.5;0.0030
482.0;0.0028
482.5;0.0028
483.0;0.0030
483.5;0.0030
484.0;0.0031
484.5;0.0032
485.0;0.0033
485.5;0.0035
486.0;0.0034
486.5;0.0035
487.0;0.0037
487.5;0.0038
488.0;0.0038
488.5;0.0039
489.0;0.0040
489.5;0.0041
490.0;0.0043
490.5;0.0043
491.0;0.0045
491.5;0.0047
492.0;0.0047
492.5;0.0048
493.0;0.0052
493.5;0.0053
494.0;0.0054
494.5;0.0056
495.0;0.0057
495.5;0.0059
496.0;0.0061
496.5;0.0062
497.0;0.0064
497.5;0.0066
498.0;0.0068
498.5;0.0069
499.0;0.0071
499.5;0.0074
500.0;0.0075
500.5;0.0077
501.0;0.0079
501.5;0.0081
502.0;0.0083
502.5;0.0085
503.0;0.0086
503.5;0.0088
504.0;0.0089
504.5;0.0090
505.0;0.0091
505.5;0.0093
506.0;0.0095
506.5;0.0096
507.0;0.0099
507.5;0.0099
508.0;0.0101
508.5;0.0101
509.0;0.0104
509.5;0.0105
510.0;0.0105
510.5;0.0107
511.0;0.0107
511.5;0.0108
512.0;0.0108
512.5;0.0109
513.0;0.0110
513.5;0.0112
514.0;0.0111
514.5;0.0113
515.0;0.0113
515.5;0.0114
516.0;0.0115
516.5;0.0116
517.0;0.0116
517.5;0.0117
518.0;0.0119
518.5;0.0120
519.0;0.0122
519.5;0.0123
520.0;0.0125
520.5;0.0128
521.0;0.0129
521.5;0.0132
522.0;0.0133
522.5;0.0136
523.0;0.0139
523.5;0.0142
524.0;0.0145
524.5;0.0148
525.0;0.0152
525.5;0.0156
526.0;0.0159
526.5;0.0163
527.0;0.0166
527.5;0.0172
528.0;0.0175
528.5;0.0180
529.0;0.0184
529.5;0.0190
530.0;0.0194
530.5;0.0200
531.0;0.0205
531.5;0.0212
532.0;0.0217
532.5;0.0223
533.0;0.0229
533.5;0.0235
534.0;0.0241
534.5;0.0247
535.0;0.0253
535.5;0.0259
536.0;0.0265
536.5;0.0270
537.0;0.0276
537.5;0.0282
538.0;0.0286
538.5;0.0292
539.0;0.0297
539.5;0.0302
540.0;0.0306
540.5;0.0311
541.0;0.0314
541.5;0.0318
542.0;0.0321
542.5;0.0324
543.0;0.0326
543.5;0.0329
544.0;0.0330
544.5;0.0330
545.0;0.0331
545.5;0.0332
546.0;0.0331
546.5;0.0330
547.0;0.0329
547.5;0.0327
548.0;0.0326
548.5;0.0323
549.0;0.0319
549.5;0.0316
550.0;0.0312
550.5;0.0307
551.0;0.0302
551.5;0.0296
552.0;0.0291
552.5;0.0285
553.0;0.0279
553.5;0.0271
554.0;0.0265
554.5;0.0258
555.0;0.0251
555.5;0.0242
556.0;0.0235
556.5;0.0227
557.0;0.0218
557.5;0.0211
558.0;0.0203
558.5;0.0196
559.0;0.0188
559.5;0.0179
560.0;0.0171
560.5;0.0163
561.0;0.0155
561.5;0.0148
562.0;0.0141
562.5;0.0133
563.0;0.0126
563.5;0.0120
564.0;0.0113
564.5;0.0107
565.0;0.0101
565.5;0.0095
566.0;0.0089
566.5;0.0082
567.0;0.0078
567.5;0.0072
568.0;0.0069
568.5;0.0064
569.0;0.0059
569.5;0.0056
570.0;0.0051
570.5;0.0048
571.0;0.0045
571.5;0.0041
572.0;0.0039
572.5;0.0036
573.0;0.0033
573.5;0.0031
574.0;0.0029
574.5;0.0026
575.0;0.0025
575.5;0.0021
576.0;0.0020
576.5;0.0019
577.0;0.0017
577.5;0.0016
578.0;0.0014
578.5;0.0013
579.0;0.0012
579.5;0.0011
580.0;0.0010
580.5;0.0009
581.0;0.0008
581.5;0.0007
582.0;0.0007
582.5;0.0005
583.0;0.0005
583.5;0.0004
584.0;0.0004
584.5;0.0003
585.0;0.0002
585.5;0.0001
586.0;0.0001
586.5;0.0001
587.0;0.0001
587.5;0.0000
588.0;0.0000
588.5;0.0000
589.0;-0.0001
589.5;-0.0001
590.0;-0.0001
590.5;-0.0001
591.0;-0.0002
591.5;-0.0001
592.0;-0.0002
592.5;-0.0002
593.0;-0.0002
593.5;-0.0003
594.0;-0.0002
594.5;-0.0001
595.0;-0.0002
595.5;-0.0001
596.0;-0.0002
596.5;-0.0001
597.0;-0.0002
597.5;-0.0002
598.0;-0.0001
598.5;-0.0002
599.0;-0.0002
599.5;-0.0001
600.0;-0.0002
600.5;-0.0002
601.0;-0.0001
601.5;-0.0002
602.0;-0.0002
602.5;-0.0001
603.0;-0.0001
603.5;-0.0001
604.0;-0.0001
604.5;-0.0002
605.0;-0.0001
605.5;0.0000
606.0;0.0000
606.5;0.0000
607.0;0.0000
607.5;0.0000
608.0;-0.0001
608.5;0.0000
609.0;0.0001
609.5;0.0000
610.0;0.0001
610.5;0.0001
611.0;0.0001
611.5;0.0001
612.0;0.0001
612.5;0.0001
613.0;0.0001
613.5;0.0001
614.0;0.0001
614.5;0.0000
615.0;0.0001
615.5;0.0001
616.0;0.0002
616.5;0.0001
617.0;0.0001
617.5;0.0001
618.0;0.0001
618.5;0.0001
619.0;0.0001
619.5;0.0001
620.0;0.0002
620.5;0.0001
621.0;0.0001
621.5;0.0000
622.0;0.0001
622.5;0.0001
623.0;0.0000
623.5;0.0001
624.0;0.0001
624.5;0.0001
625.0;0.0000
625.5;0.0000
626.0;0.0000
626.5;0.0000
627.0;0.0001
627.5;0.0001
628.0;-0.0001
628.5;0.0000
629.0;0.0000
629.5;0.0000
630.0;0.0000
630.5;0.0000
631.0;-0.0001
631.5;-0.0001
632.0;-0.0001
632.5;0.0000
633.0;0.0000
633.5;-0.0001
634.0;-0.0001
634.5;-0.0001
635.0;-0.0001
635.5;0.0000
636.0;0.0000
636.5;-0.0001
637.0;0.0000
637.5;-0.0001
638.0;0.0000
638.5;-0.0001
639.0;-0.0001
639.5;-0.0001
640.0;0.0000
640.5;-0.0001
641.0;-0.0001
641.5;-0.0001
642.0;-0.0001
642.5;0.0000
643.0;-0.0001
643.5;-0.0001
644.0;0.0000
644.5;-0.0001
645.0;0.0000
645.5;0.0000
646.0;0.0000
646.5;0.0000
647.0;0.0000
647.5;0.0000
648.0;-0.0001
648.5;0.0000
649.0;0.0000
649.5;0.0000
650.0;0.0001
650.5;0.0000
651.0;0.0000
651.5;0.0000
652.0;0.0000
652.5;0.0001
653.0;0.0001
653.5;0.0001
654.0;0.0002
654.5;0.0001
655.0;0.0002
655.5;0.0001
656.0;0.0001
656.5;0.0002
657.0;0.0002
657.5;0.0002
658.0;0.0002
658.5;0.0001
659.0;0.0002
659.5;0.0002
660.0;0.0002
660.5;0.0002
661.0;0.0002
661.5;0.0002
662.0;0.0002
662.5;0.0002
663.0;0.0001
663.5;0.0001
664.0;0.0002
664.5;0.0002
665.0;0.0001
665.5;0.0001
666.0;0.0001
666.5;0.0001
667.0;0.0001
667.5;0.0001
668.0;0.0001
668.5;0.0001
669.0;0.0000
669.5;0.0000
670.0;0.0000
670.5;0.0000
671.0;0.0000
671.5;-0.0001
672.0;0.0000
672.5;-0.0002
673.0;-0.0002
673.5;-0.0002
674.0;-0.0001
674.5;-0.0003
675.0;-0.0002
675.5;-0.0003
676.0;-0.0002
676.5;-0.0003
677.0;-0.0003
677.5;-0.0003
678.0;-0.0003
678.5;-0.0003
679.0;-0.0003
679.5;-0.0004
680.0;-0.0003
680.5;-0.0004
681.0;-0.0003
681.5;-0.0004
682.0;-0.0003
682.5;-0.0003
683.0;-0.0004
683.5;-0.0004
684.0;-0.0004
684.5;-0.0003
685.0;-0.0003
685.5;-0.0003
686.0;-0.0003
686.5;-0.0003
687.0;-0.0004
687.5;-0.0003
688.0;-0.0003
688.5;-0.0004
689.0;-0.0003
689.5;-0.0003
690.0;-0.0004
690.5;-0.0003
691.0;-0.0003
691.5;-0.0002
692.0;-0.0003
692.5;-0.0004
693.0;-0.0003
693.5;-0.0003
694.0;-0.0002
694.5;-0.0003
695.0;-0.0002
695.5;-0.0003
696.0;-0.0002
696.5;-0.0003
697.0;-0.0003
697.5;-0.0001
698.0;-0.0001
698.5;-0.0002
699.0;-0.0002
699.5;-0.0002
700.0;-0.0004
700.5;-0.0003
701.0;-0.0002
701.5;-0.0003
702.0;-0.0003
702.5;-0.0003
703.0;-0.0003
703.5;-0.0003
704.0;-0.0003
704.5;-0.0002
705.0;-0.0003
705.5;-0.0002
706.0;-0.0003
706.5;-0.0003
707.0;-0.0002
707.5;-0.0002
708.0;-0.0002
708.5;-0.0002
709.0;-0.0003
709.5;-0.0003
710.0;-0.0003
710.5;-0.0003
711.0;-0.0003
711.5;-0.0002
712.0;-0.0003
712.5;-0.0002
713.0;-0.0004
713.5;-0.0003
714.0;-0.0004
714.5;-0.0004
715.0;-0.0003
715.5;-0.0003
716.0;-0.0004
716.5;-0.0003
717.0;-0.0004
717.5;-0.0004
718.0;-0.0004
718.5;-0.0005
719.0;-0.0005
719.5;-0.0005
720.0;-0.0004
720.5;-0.0004
721.0;-0.0004
721.5;-0.0004
722.0;-0.0004
722.5;-0.0004
723.0;-0.0004
723.5;-0.0004
724.0;-0.0004
724.5;-0.0004
725.0;-0.0004
725.5;-0.0004
726.0;-0.0005
726.5;-0.0004
727.0;-0.0005
727.5;-0.0004
728.0;-0.0004
728.5;-0.0004
729.0;-0.0005
729.5;-0.0005
730.0;-0.0005
730.5;-0.0004
731.0;-0.0005
731.5;-0.0006
732.0;-0.0005
732.5;-0.0005
733.0;-0.0004
733.5;-0.0004
734.0;-0.0004
734.5;-0.0004
735.0;-0.0005
735.5;-0.0005
736.0;-0.0006
736.5;-0.0006
737.0;-0.0005
737.5;-0.0005
738.0;-0.0005
738.5;-0.0005
739.0;-0.0006
739.5;-0.0006
740.0;-0.0006
740.5;-0.0006
741.0;-0.0005
741.5;-0.0005
742.0;-0.0006
742.5;-0.0006
743.0;-0.0006
743.5;-0.0005
744.0;-0.0005
744.5;-0.0005
745.0;-0.0004
745.5;-0.0004
746.0;-0.0004
746.5;-0.0005
747.0;-0.0004
747.5;-0.0004
748.0;-0.0004
748.5;-0.0004
749.0;-0.0004
749.5;-0.0004
750.0;-0.0005
750.5;-0.0006
751.0;-0.0005
751.5;-0.0005
752.0;-0.0004
752.5;-0.0004
753.0;-0.0004
753.5;-0.0004
754.0;-0.0003
754.5;-0.0002
755.0;-0.0003
755.5;-0.0004
756.0;-0.0004
756.5;-0.0003
757.0;-0.0003
757.5;-0.0004
758.0;-0.0004
758.5;-0.0003
759.0;-0.0004
759.5;-0.0003
760.0;-0.0003
760.5;-0.0003
761.0;-0.0003
761.5;-0.0003
762.0;-0.0003
762.5;-0.0003
763.0;-0.0003
763.5;-0.0003
764.0;-0.0003
764.5;-0.0003
765.0;-0.0003
765.5;-0.0003
766.0;-0.0002
766.5;-0.0003
767.0;-0.0003
767.5;-0.0003
768.0;-0.0002
768.5;-0.0002
769.0;-0.0003
769.5;-0.0002
770.0;-0.0002
770.5;-0.0002
771.0;-0.0001
771.5;-0.0002
772.0;-0.0002
772.5;-0.0002
773.0;-0.0003
773.5;-0.0002
774.0;-0.0003
774.5;-0.0003
775.0;-0.0002
775.5;-0.0002
776.0;-0.0001
776.5;-0.0002
777.0;-0.0002
777.5;-0.0002
778.0;-0.0002
778.5;-0.0002
779.0;-0.0002
779.5;-0.0002
780.0;-0.0001
780.5;-0.0002
781.0;-0.0002
781.5;-0.0002
782.0;-0.0002
782.5;-0.0001
783.0;-0.0001
783.5;-0.0001
784.0;-0.0001
784.5;0.0000
785.0;-0.0001
785.5;0.0000
786.0;-0.0001
786.5;0.0000
787.0;-0.0001
787.5;0.0000
788.0;0.0000
788.5;0.0001
789.0;0.0000
789.5;0.0000
790.0;0.0001
790.5;0.0001
791.0;0.0000
791.5;0.0001
792.0;0.0001
792.5;0.0001
793.0;0.0001
793.5;0.0001
794.0;0.0001
794.5;0.0002
795.0;0.0002
795.5;0.0001
796.0;0.0002
796.5;0.0002
797.0;0.0001
797.5;0.0002
798.0;0.0002
798.5;0.0002
799.0;0.0002
799.5;0.0002
800.0;0.0002
800.5;0.0002
801.0;0.0002
801.5;0.0002
802.0;0.0001
802.5;0.0001
803.0;0.0001
803.5;0.0001
804.0;0.0001
804.5;0.0001
805.0;0.0001
805.5;0.0001
806.0;0.0001
806.5;0.0001
807.0;0.0001
807.5;0.0002
808.0;0.0002
808.5;0.0001
809.0;0.0002
809.5;0.0002
810.0;0.0001
810.5;0.0002
811.0;0.0001
811.5;0.0001
812.0;0.0001
812.5;0.0000
813.0;0.0001
813.5;0.0001
814.0;0.0001
814.5;0.0001
815.0;0.0002
815.5;0.0001
816.0;0.0002
816.5;0.0001
817.0;0.0001
817.5;0.0001
818.0;0.0001
818.5;0.0001
819.0;0.0001
819.5;0.0001
820.0;0.0001
820.5;0.0000
821.0;0.0001
821.5;0.0002
822.0;0.0001
822.5;0.0000
823.0;-0.0001
823.5;0.0000
824.0;0.0000
824.5;0.0000
825.0;0.0000
825.5;-0.0001
826.0;-0.0001
826.5;0.0000
827.0;0.0000
827.5;-0.0002
828.0;-0.0001
828.5;-0.0002
829.0;-0.0001
829.5;-0.0001
830.0;-0.0001
830.5;0.0000
831.0;-0.0001
831.5;0.0000
832.0;-0.0001
832.5;0.0000
833.0;0.0000
833.5;0.0000
834.0;0.0000
834.5;0.0001
835.0;0.0001
835.5;0.0001
836.0;0.0001
836.5;0.0001
837.0;0.0002
837.5;0.0002
838.0;0.0002
838.5;0.0003
839.0;0.0003
839.5;0.0003
840.0;0.0003
840.5;0.0004
841.0;0.0003
841.5;0.0003
842.0;0.0003
842.5;0.0004
843.0;0.0003
843.5;0.0004
844.0;0.0003
844.5;0.0004
845.0;0.0003
845.5;0.0003
846.0;0.0003
846.5;0.0003
847.0;0.0003
847.5;0.0003
848.0;0.0003
848.5;0.0003
849.0;0.0003
849.5;0.0003
850.0;0.0003
850.5;0.0003
851.0;0.0002
851.5;0.0003
852.0;0.0003
852.5;0.0003
853.0;0.0002
853.5;0.0004
854.0;0.0002
854.5;0.0004
855.0;0.0002
855.5;0.0003
856.0;0.0002
856.5;0.0003
857.0;0.0003
857.5;0.0003
858.0;0.0002
858.5;0.0003
859.0;0.0003
859.5;0.0003
860.0;0.0003
860.5;0.0002
861.0;0.0003
861.5;0.0004
862.0;0.0003
862.5;0.0003
863.0;0.0002
863.5;0.0002
864.0;0.0003
864.5;0.0002
865.0;0.0002
865.5;0.0002
866.0;0.0002
866.5;0.0002
867.0;0.0002
867.5;0.0002
868.0;0.0002
868.5;0.0002
869.0;0.0003
869.5;0.0001
870.0;0.0002
870.5;0.0002
871.0;0.0002
871.5;0.0002
872.0;0.0002
872.5;0.0001
873.0;0.0002
873.5;0.0002
874.0;0.0002
874.5;0.0002
875.0;0.0002
875.5;0.0001
876.0;0.0002
876.5;0.0001
877.0;0.0001
877.5;0.0002
878.0;0.0001
878.5;0.0001
879.0;0.0001
879.5;0.0001
880.0;0.0001
880.5;0.0002
881.0;0.0002
881.5;0.0002
882.0;0.0002
882.5;0.0001
883.0;0.0001
883.5;0.0002
884.0;0.0002
884.5;0.0001
885.0;0.0001
885.5;0.0002
886.0;0.0001
886.5;0.0001
887.0;0.0001
887.5;0.0002
888.0;0.0001
888.5;0.0001
889.0;0.0001
889.5;0.0001
890.0;0.0001
890.5;0.0000
891.0;0.0001
891.5;0.0001
892.0;0.0001
892.5;0.0002
893.0;0.0002
893.5;0.0001
894.0;0.0001
894.5;0.0001
895.0;0.0001
895.5;0.0002
896.0;0.0001
896.5;0.0002
897.0;0.0001
897.5;0.0002
898.0;0.0001
898.5;0.0002
899.0;0.0001
899.5;0.0002
900.0;0.0001
900.5;0.0001
901.0;0.0000
901.5;0.0000
902.0;0.0001
902.5;0.0000
903.0;0.0000
903.5;0.0000
904.0;0.0000
904.5;0.0000
905.0;0.0000
905.5;0.0001
906.0;0.0000
906.5;0.0000
907.0;0.0000
907.5;0.0001
908.0;0.0001
908.5;0.0001
909.0;0.0000
909.5;0.0000
910.0;0.0000
910.5;0.0000
911.0;0.0000
911.5;0.0000
912.0;0.0000
912.5;0.0000
913.0;0.0000
913.5;0.0000
914.0;0.0000
914.5;-0.0001
915.0;-0.0001
915.5;-0.0001
916.0;-0.0001
916.5;-0.0001
917.0;-0.0001
917.5;-0.0001
918.0;-0.0001
918.5;0.0000
919.0;-0.0001
919.5;-0.0001
920.0;-0.0001
920.5;0.0000
921.0;-0.0001
921.5;0.0000
922.0;-0.0001
922.5;-0.0001
923.0;-0.0001
923.5;0.0000
924.0;-0.0001
924.5;-0.0001
925.0;-0.0001
925.5;0.0000
926.0;0.0000
926.5;-0.0001
927.0;0.0000
927.5;0.0000
928.0;-0.0001
928.5;-0.0001
929.0;-0.0001
929.5;0.0000
930.0;-0.0001
930.5;0.0000
931.0;0.0000
931.5;0.0001
932.0;0.0000
932.5;0.0001
933.0;0.0000
933.5;0.0000
934.0;0.0000
934.5;0.0001
935.0;0.0000
935.5;0.0000
936.0;0.0001
936.5;0.0001
937.0;0.0001
937.5;0.0002
938.0;0.0003
938.5;0.0002
939.0;0.0002
939.5;0.0002
940.0;0.0003
940.5;0.0003
941.0;0.0003
941.5;0.0003
942.0;0.0003
942.5;0.0003
943.0;0.0003
943.5;0.0003
944.0;0.0003
944.5;0.0003
945.0;0.0003
945.5;0.0003
946.0;0.0004
946.5;0.0003
947.0;0.0004
947.5;0.0004
948.0;0.0004
948.5;0.0004
949.0;0.0005
949.5;0.0005
950.0;0.0006
950.5;0.0006
951.0;0.0006
951.5;0.0006
952.0;0.0007
952.5;0.0008
953.0;0.0009
953.5;0.0009
954.0;0.0010
954.5;0.0011
955.0;0.0011
955.5;0.0012
956.0;0.0012
956.5;0.0012
957.0;0.0013
957.5;0.0013
958.0;0.0014
958.5;0.0014
959.0;0.0014
959.5;0.0015
960.0;0.0015
960.5;0.0016
961.0;0.0015
961.5;0.0016
962.0;0.0016
962.5;0.0017
963.0;0.0017
963.5;0.0017
964.0;0.0018
964.5;0.0018
965.0;0.0018
965.5;0.0018
966.0;0.0019
966.5;0.0018
967.0;0.0019
967.5;0.0020
968.0;0.0019
968.5;0.0020
969.0;0.0020
969.5;0.0021
970.0;0.0021
970.5;0.0022
971.0;0.0021
971.5;0.0022
972.0;0.0022
972.5;0.0022
973.0;0.0022
973.5;0.0023
974.0;0.0023
974.5;0.0023
975.0;0.0024
975.5;0.0024
976.0;0.0025
976.5;0.0025
977.0;0.0025
977.5;0.0026
978.0;0.0026
978.5;0.0028
979.0;0.0027
979.5;0.0028
980.0;0.0028
980.5;0.0028
981.0;0.0029
981.5;0.0030
982.0;0.0030
982.5;0.0031
983.0;0.0031
983.5;0.0031
984.0;0.0031
984.5;0.0032
985.0;0.0033
985.5;0.0033
986.0;0.0034
986.5;0.0034
987.0;0.0034
987.5;0.0035
988.0;0.0035
988.5;0.0036
989.0;0.0036
989.5;0.0036
990.0;0.0036
990.5;0.0038
991.0;0.0039
991.5;0.0038
992.0;0.0039
992.5;0.0039
993.0;0.0041
993.5;0.0041
994.0;0.0042
994.5;0.0043
995.0;0.0043
995.5;0.0044
996.0;0.0044
996.5;0.0045
997.0;0.0046
997.5;0.0046
998.0;0.0047
998.5;0.0047
999.0;0.0048
999.5;0.0049
1000.0;0.0051
1000.5;0.0051
1001.0;0.0052
1001.5;0.0053
1002.0;0.0053
1002.5;0.0055
1003.0;0.0055
1003.5;0.0055
1004.0;0.0056
1004.5;0.0057
1005.0;0.0059
1005.5;0.0059
1006.0;0.0061
1006.5;0.0062
1007.0;0.0062
1007.5;0.0063
1008.0;0.0064
1008.5;0.0065
1009.0;0.0066
1009.5;0.0066
1010.0;0.0068
1010.5;0.0069
1011.0;0.0069
1011.5;0.0072
1012.0;0.0072
1012.5;0.0074
1013.0;0.0074
1013.5;0.0075
1014.0;0.0077
1014.5;0.0077
1015.0;0.0079
1015.5;0.0081
1016.0;0.0082
1016.5;0.0083
1017.0;0.0085
1017.5;0.0086
1018.0;0.0086
1018.5;0.0088
1019.0;0.0089
1019.5;0.0090
1020.0;0.0091
1020.5;0.0093
1021.0;0.0094
1021.5;0.0097
1022.0;0.0098
1022.5;0.0100
1023.0;0.0101
1023.5;0.0102
1024.0;0.0104
1024.5;0.0106
1025.0;0.0106
1025.5;0.0108
1026.0;0.0110
1026.5;0.0111
1027.0;0.0113
1027.5;0.0115
1028.0;0.0115
1028.5;0.0117
1029.0;0.0119
1029.5;0.0120
1030.0;0.0123
1030.5;0.0124
1031.0;0.0126
1031.5;0.0127
1032.0;0.0130
1032.5;0.0131
1033.0;0.0132
1033.5;0.0134
1034.0;0.0136
1034.5;0.0138
1035.0;0.0139
1035.5;0.0142
1036.0;0.0143
1036.5;0.0145
1037.0;0.0147
1037.5;0.0150
1038.0;0.0152
1038.5;0.0153
1039.0;0.0157
1039.5;0.0159
1040.0;0.0160
1040.5;0.0161
1041.0;0.0163
1041.5;0.0166
1042.0;0.0167
1042.5;0.0169
1043.0;0.0172
1043.5;0.0174
1044.0;0.0175
1044.5;0.0178
1045.0;0.0180
1045.5;0.0182
1046.0;0.0183
1046.5;0.0186
1047.0;0.0188
1047.5;0.0190
1048.0;0.0190
1048.5;0.0194
1049.0;0.0195
1049.5;0.0198
1050.0;0.0199
1050.5;0.0202
1051.0;0.0204
1051.5;0.0206
1052.0;0.0209
1052.5;0.0210
1053.0;0.0212
1053.5;0.0213
1054.0;0.0214
1054.5;0.0218
1055.0;0.0220
1055.5;0.0223
1056.0;0.0226
1056.5;0.0229
1057.0;0.0232
1057.5;0.0239
1058.0;0.0243
1058.5;0.0248
1059.0;0.0253
1059.5;0.0257
1060.0;0.0261
1060.5;0.0264
1061.0;0.0267
1061.5;0.0266
1062.0;0.0267
1062.5;0.0263
1063.0;0.0263
1063.5;0.0259
1064.0;0.0255
1064.5;0.0251
1065.0;0.0247
1065.5;0.0246
1066.0;0.0245
1066.5;0.0242
1067.0;0.0242
1067.5;0.0242
1068.0;0.0242
1068.5;0.0240
1069.0;0.0242
1069.5;0.0242
1070.0;0.0242
1070.5;0.0243
1071.0;0.0244
1071.5;0.0244
1072.0;0.0246
1072.5;0.0245
1073.0;0.0250
1073.5;0.0249
1074.0;0.0249
1074.5;0.0252
1075.0;0.0254
1075.5;0.0255
1076.0;0.0256
1076.5;0.0255
1077.0;0.0257
1077.5;0.0257
1078.0;0.0259
1078.5;0.0261
1079.0;0.0261
1079.5;0.0262
1080.0;0.0263
1080.5;0.0263
1081.0;0.0264
1081.5;0.0265
1082.0;0.0261
1082.5;0.0267
1083.0;0.0269
1083.5;0.0268
1084.0;0.0270
1084.5;0.0268
1085.0;0.0271
1085.5;0.0271
1086.0;0.0273
1086.5;0.0271
1087.0;0.0271
1087.5;0.0273
1088.0;0.0277
1088.5;0.0276
1089.0;0.0279
1089.5;0.0279
1090.0;0.0280
1090.5;0.0283
1091.0;0.0285
1091.5;0.0280
1092.0;0.0286
1092.5;0.0287
1093.0;0.0288
1093.5;0.0284
1094.0;0.0289
1094.5;0.0289
1095.0;0.0295
1095.5;0.0292
1096.0;0.0296
1096.5;0.0296
1097.0;0.0297
1097.5;0.0298
1098.0;0.0297
1098.5;0.0295
1099.0;0.0297
1099.5;0.0299
1100.0;0.0304
