[nm];[A];
;Sample 1;
190.0;1.1858
190.5;0.9277
191.0;8.0000
191.5;0.6117
192.0;1.8235
192.5;0.5360
193.0;0.3717
193.5;0.9158
194.0;0.3343
194.5;0.4204
195.0;0.0919
195.5;0.1417
196.0;0.2781
196.5;0.3979
197.0;0.1529
197.5;0.2636
198.0;0.4337
198.5;0.3360
199.0;0.4872
199.5;0.7252
200.0;0.8122
200.5;1.0047
201.0;1.1328
201.5;1.2260
202.0;1.3200
202.5;1.4518
203.0;1.4636
203.5;1.5092
204.0;1.5097
204.5;1.5149
205.0;1.5182
205.5;1.5010
206.0;1.4779
206.5;1.4591
207.0;1.4352
207.5;1.4204
208.0;1.3975
208.5;1.3763
209.0;1.3554
209.5;1.3367
210.0;1.3205
210.5;1.3039
211.0;1.2906
211.5;1.2781
212.0;1.2686
212.5;1.2617
213.0;1.2536
213.5;1.2496
214.0;1.2457
214.5;1.2436
215.0;1.2422
215.5;1.2401
216.0;1.2403
216.5;1.2399
217.0;1.2406
217.5;1.2426
218.0;1.2459
218.5;1.2493
219.0;1.2532
219.5;1.2567
220.0;1.2631
220.5;1.2673
221.0;1.2734
221.5;1.2783
222.0;1.2822
222.5;1.2844
223.0;1.2875
223.5;1.2881
224.0;1.2900
224.5;1.2882
225.0;1.2857
225.5;1.2816
226.0;1.2760
226.5;1.2682
227.0;1.2597
227.5;1.2497
228.0;1.2385
228.5;1.2285
229.0;1.2171
229.5;1.2062
230.0;1.1958
230.5;1.1855
231.0;1.1748
231.5;1.1658
232.0;1.1570
232.5;1.1496
233.0;1.1433
233.5;1.1366
234.0;1.1328
234.5;1.1293
235.0;1.1288
235.5;1.1284
236.0;1.1300
236.5;1.1321
237.0;1.1336
237.5;1.1339
238.0;1.1310
238.5;1.1255
239.0;1.1147
239.5;1.1011
240.0;1.0822
240.5;1.0629
241.0;1.0411
241.5;1.0200
242.0;1.0029
242.5;0.9870
243.0;0.9754
243.5;0.9672
244.0;0.9630
244.5;0.9629
245.0;0.9660
245.5;0.9735
246.0;0.9845
246.5;0.9995
247.0;1.0161
247.5;1.0375
248.0;1.0599
248.5;1.0857
249.0;1.1122
249.5;1.1389
250.0;1.1661
250.5;1.1933
251.0;1.2174
251.5;1.2420
252.0;1.2617
252.5;1.2827
253.0;1.2976
253.5;1.3138
254.0;1.3264
254.5;1.3392
255.0;1.3507
255.5;1.3607
256.0;1.3693
256.5;1.3781
257.0;1.3856
257.5;1.3922
258.0;1.3960
258.5;1.3975
259.0;1.3928
259.5;1.3877
260.0;1.3779
260.5;1.3628
261.0;1.3391
261.5;1.3111
262.0;1.2802
262.5;1.2437
263.0;1.2025
263.5;1.1600
264.0;1.1161
264.5;1.0707
265.0;1.0253
265.5;0.9808
266.0;0.9388
266.5;0.8987
267.0;0.8609
267.5;0.8276
268.0;0.7968
268.5;0.7697
269.0;0.7462
269.5;0.7249
270.0;0.7068
270.5;0.6937
271.0;0.6823
271.5;0.6718
272.0;0.6649
272.5;0.6589
273.0;0.6549
273.5;0.6530
274.0;0.6502
274.5;0.6501
275.0;0.6498
275.5;0.6509
276.0;0.6527
276.5;0.6532
277.0;0.6565
277.5;0.6590
278.0;0.6610
278.5;0.6629
279.0;0.6643
279.5;0.6659
280.0;0.6690
280.5;0.6697
281.0;0.6705
281.5;0.6716
282.0;0.6732
282.5;0.6729
283.0;0.6729
283.5;0.6737
284.0;0.6721
284.5;0.6711
285.0;0.6702
285.5;0.6678
286.0;0.6658
286.5;0.6642
287.0;0.6606
287.5;0.6578
288.0;0.6549
288.5;0.6509
289.0;0.6483
289.5;0.6463
290.0;0.6430
290.5;0.6404
291.0;0.6384
291.5;0.6369
292.0;0.6357
292.5;0.6339
293.0;0.6344
293.5;0.6350
294.0;0.6348
294.5;0.6347
295.0;0.6364
295.5;0.6376
296.0;0.6391
296.5;0.6402
297.0;0.6434
297.5;0.6442
298.0;0.6464
298.5;0.6470
299.0;0.6489
299.5;0.6501
300.0;0.6528
300.5;0.6537
301.0;0.6560
301.5;0.6593
302.0;0.6602
302.5;0.6640
303.0;0.6660
303.5;0.6670
304.0;0.6688
304.5;0.6713
305.0;0.6706
305.5;0.6711
306.0;0.6700
306.5;0.6671
307.0;0.6611
307.5;0.6548
308.0;0.6463
308.5;0.6348
309.0;0.6223
309.5;0.6059
310.0;0.5903
310.5;0.5708
311.0;0.5514
311.5;0.5300
312.0;0.5078
312.5;0.4848
313.0;0.4602
313.5;0.4376
314.0;0.4150
314.5;0.3933
315.0;0.3715
315.5;0.3502
316.0;0.3285
316.5;0.3094
317.0;0.2914
317.5;0.2746
318.0;0.2575
318.5;0.2433
319.0;0.2286
319.5;0.2164
320.0;0.2085
320.5;0.1952
321.0;0.1842
321.5;0.1761
322.0;0.1705
322.5;0.1639
323.0;0.1550
323.5;0.1506
324.0;0.1458
324.5;0.1409
325.0;0.1387
325.5;0.1360
326.0;0.1329
326.5;0.1332
327.0;0.1334
327.5;0.1319
328.0;0.1323
328.5;0.1342
329.0;0.1352
329.5;0.1380
330.0;0.1413
330.5;0.1444
331.0;0.1477
331.5;0.1523
332.0;0.1580
332.5;0.1631
333.0;0.1682
333.5;0.1751
334.0;0.1810
334.5;0.1867
335.0;0.1926
335.5;0.1997
336.0;0.2050
336.5;0.2105
337.0;0.2167
337.5;0.2213
338.0;0.2269
338.5;0.2320
339.0;0.2356
339.5;0.2400
340.0;0.2442
340.5;0.2470
341.0;0.2508
341.5;0.2553
342.0;0.2589
342.5;0.2634
343.0;0.2675
343.5;0.2737
344.0;0.2788
344.5;0.2846
345.0;0.2915
345.5;0.2986
346.0;0.3067
346.5;0.3152
347.0;0.3247
347.5;0.3344
348.0;0.3450
348.5;0.3552
349.0;0.3655
349.5;0.3755
350.0;0.3853
350.5;0.3953
351.0;0.4037
351.5;0.4121
352.0;0.4177
352.5;0.4244
353.0;0.4281
353.5;0.4302
354.0;0.4317
354.5;0.4310
355.0;0.4291
355.5;0.4246
356.0;0.4202
356.5;0.4145
357.0;0.4075
357.5;0.3985
358.0;0.3891
358.5;0.3789
359.0;0.3686
359.5;0.3579
360.0;0.3456
360.5;0.3340
361.0;0.3214
361.5;0.3098
362.0;0.2974
362.5;0.2859
363.0;0.2739
363.5;0.2624
364.0;0.2513
364.5;0.2408
365.0;0.2296
365.5;0.2209
366.0;0.2105
366.5;0.2018
367.0;0.1937
367.5;0.1855
368.0;0.1782
368.5;0.1722
369.0;0.1663
369.5;0.1590
370.0;0.1550
370.5;0.1488
371.0;0.1443
371.5;0.1405
372.0;0.1362
372.5;0.1327
373.0;0.1299
373.5;0.1269
374.0;0.1246
374.5;0.1232
375.0;0.1216
375.5;0.1195
376.0;0.1182
376.5;0.1170
377.0;0.1167
377.5;0.1152
378.0;0.1146
378.5;0.1157
379.0;0.1148
379.5;0.1153
380.0;0.1151
380.5;0.1159
381.0;0.1163
381.5;0.1178
382.0;0.1182
382.5;0.1195
383.0;0.1203
383.5;0.1212
384.0;0.1228
384.5;0.1245
385.0;0.1255
385.5;0.1275
386.0;0.1282
386.5;0.1299
387.0;0.1315
387.5;0.1333
388.0;0.1350
388.5;0.1364
389.0;0.1379
389.5;0.1395
390.0;0.1407
390.5;0.1422
391.0;0.1431
391.5;0.1446
392.0;0.1458
392.5;0.1472
393.0;0.1477
393.5;0.1483
394.0;0.1491
394.5;0.1496
395.0;0.1501
395.5;0.1508
396.0;0.1508
396.5;0.1511
397.0;0.1505
397.5;0.1505
398.0;0.1504
398.5;0.1504
399.0;0.1495
399.5;0.1493
400.0;0.1487
400.5;0.1478
401.0;0.1475
401.5;0.1467
402.0;0.1457
402.5;0.1447
403.0;0.1438
403.5;0.1429
404.0;0.1426
404.5;0.1414
405.0;0.1404
405.5;0.1393
406.0;0.1383
406.5;0.1373
407.0;0.1360
407.5;0.1349
408.0;0.1343
408.5;0.1331
409.0;0.1324
409.5;0.1315
410.0;0.1303
410.5;0.1298
411.0;0.1291
411.5;0.1281
412.0;0.1276
412.5;0.1271
413.0;0.1267
413.5;0.1261
414.0;0.1259
414.5;0.1257
415.0;0.1252
415.5;0.1250
416.0;0.1245
416.5;0.1244
417.0;0.1239
417.5;0.1234
418.0;0.1228
418.5;0.1223
419.0;0.1209
419.5;0.1201
420.0;0.1190
420.5;0.1178
421.0;0.1166
421.5;0.1150
422.0;0.1136
422.5;0.1124
423.0;0.1104
423.5;0.1090
424.0;0.1067
424.5;0.1051
425.0;0.1028
425.5;0.1008
426.0;0.0984
426.5;0.0966
427.0;0.0941
427.5;0.0919
428.0;0.0896
428.5;0.0873
429.0;0.0847
429.5;0.0826
430.0;0.0800
430.5;0.0777
431.0;0.0758
431.5;0.0737
432.0;0.0717
432.5;0.0695
433.0;0.0671
433.5;0.0653
434.0;0.0636
434.5;0.0615
435.0;0.0600
435.5;0.0587
436.0;0.0569
436.5;0.0556
437.0;0.0543
437.5;0.0532
438.0;0.0521
438.5;0.0512
439.0;0.0506
439.5;0.0497
440.0;0.0493
440.5;0.0487
441.0;0.0484
441.5;0.0481
442.0;0.0478
442.5;0.0477
443.0;0.0478
443.5;0.0477
444.0;0.0477
444.5;0.0483
445.0;0.0485
445.5;0.0488
446.0;0.0494
446.5;0.0501
447.0;0.0509
447.5;0.0516
448.0;0.0526
448.5;0.0538
449.0;0.0548
449.5;0.0557
450.0;0.0572
450.5;0.0584
451.0;0.0598
451.5;0.0614
452.0;0.0630
452.5;0.0650
453.0;0.0669
453.5;0.0683
454.0;0.0706
454.5;0.0725
455.0;0.0748
455.5;0.0775
456.0;0.0798
456.5;0.0825
457.0;0.0850
457.5;0.0881
458.0;0.0914
458.5;0.0943
459.0;0.0975
459.5;0.1009
460.0;0.1045
460.5;0.1079
461.0;0.1116
461.5;0.1158
462.0;0.1199
462.5;0.1242
463.0;0.1286
463.5;0.1328
464.0;0.1376
464.5;0.1422
465.0;0.1469
465.5;0.1520
466.0;0.1569
466.5;0.1620
467.0;0.1673
467.5;0.1721
468.0;0.1777
468.5;0.1831
469.0;0.1882
469.5;0.1942
470.0;0.1989
470.5;0.2061
471.0;0.2121
471.5;0.2180
472.0;0.2239
472.5;0.2299
473.0;0.2359
473.5;0.2418
474.0;0.2481
474.5;0.2544
475.0;0.2607
475.5;0.2672
476.0;0.2739
476.5;0.2804
477.0;0.2873
477.5;0.2941
478.0;0.3014
478.5;0.3085
479.0;0.3160
479.5;0.3236
480.0;0.3315
480.5;0.3395
481.0;0.3478
481.5;0.3562
482.0;0.3649
482.5;0.3742
483.0;0.3837
483.5;0.3939
484.0;0.4045
484.5;0.4155
485.0;0.4269
485.5;0.4391
486.0;0.4514
486.5;0.4645
487.0;0.4779
487.5;0.4917
488.0;0.5064
488.5;0.5217
489.0;0.5379
489.5;0.5547
490.0;0.5723
490.5;0.5907
491.0;0.6095
491.5;0.6292
492.0;0.6494
492.5;0.6703
493.0;0.6918
493.5;0.7139
494.0;0.7363
494.5;0.7593
495.0;0.7829
495.5;0.8069
496.0;0.8310
496.5;0.8556
497.0;0.8807
497.5;0.9063
498.0;0.9325
498.5;0.9589
499.0;0.9853
499.5;1.0118
500.0;1.0380
500.5;1.0645
501.0;1.0902
501.5;1.1162
502.0;1.1417
502.5;1.1672
503.0;1.1925
503.5;1.2174
504.0;1.2421
504.5;1.2659
505.0;1.2897
505.5;1.3123
506.0;1.3346
506.5;1.3558
507.0;1.3766
507.5;1.3966
508.0;1.4153
508.5;1.4337
509.0;1.4512
509.5;1.4680
510.0;1.4839
510.5;1.4999
511.0;1.5150
511.5;1.5301
512.0;1.5445
512.5;1.5589
513.0;1.5728
513.5;1.5869
514.0;1.6006
514.5;1.6138
515.0;1.6278
515.5;1.6421
516.0;1.6563
516.5;1.6713
517.0;1.6871
517.5;1.7038
518.0;1.7215
518.5;1.7398
519.0;1.7590
519.5;1.7795
520.0;1.8018
520.5;1.8240
521.0;1.8482
521.5;1.8741
522.0;1.9021
522.5;1.9290
523.0;1.9596
523.5;1.9901
524.0;2.0212
524.5;2.0544
525.0;2.0884
525.5;2.1229
526.0;2.1599
526.5;2.1978
527.0;2.2353
527.5;2.2709
528.0;2.3071
528.5;2.3421
529.0;2.3755
529.5;2.4061
530.0;2.4406
530.5;2.4709
531.0;2.5008
531.5;2.5224
532.0;2.5485
532.5;2.5699
533.0;2.5896
533.5;2.6074
534.0;2.6185
534.5;2.6318
535.0;2.6395
535.5;2.6492
536.0;2.6579
536.5;2.6668
537.0;2.6709
537.5;2.6745
538.0;2.6737
538.5;2.6780
539.0;2.6847
539.5;2.6816
540.0;2.6825
540.5;2.6813
541.0;2.6870
541.5;2.6859
542.0;2.6839
542.5;2.6862
543.0;2.6851
543.5;2.6869
544.0;2.6831
544.5;2.6875
545.0;2.6842
545.5;2.6876
546.0;2.6851
546.5;2.6835
547.0;2.6836
547.5;2.6840
548.0;2.6840
548.5;2.6877
549.0;2.6829
549.5;2.6815
550.0;2.6798
550.5;2.6792
551.0;2.6749
551.5;2.6786
552.0;2.6739
552.5;2.6738
553.0;2.6687
553.5;2.6677
554.0;2.6656
554.5;2.6632
555.0;2.6575
555.5;2.6489
556.0;2.6453
556.5;2.6347
557.0;2.6244
557.5;2.6129
558.0;2.5925
558.5;2.5721
559.0;2.5522
559.5;2.5174
560.0;2.4778
560.5;2.4331
561.0;2.3858
561.5;2.3273
562.0;2.2636
562.5;2.1932
563.0;2.1167
563.5;2.0374
564.0;1.9550
564.5;1.8706
565.0;1.7857
565.5;1.7009
566.0;1.6174
566.5;1.5348
567.0;1.4534
567.5;1.3736
568.0;1.2960
568.5;1.2211
569.0;1.1494
569.5;1.0805
570.0;1.0147
570.5;0.9524
571.0;0.8929
571.5;0.8355
572.0;0.7813
572.5;0.7295
573.0;0.6800
573.5;0.6330
574.0;0.5886
574.5;0.5467
575.0;0.5076
575.5;0.4708
576.0;0.4363
576.5;0.4041
577.0;0.3741
577.5;0.3460
578.0;0.3198
578.5;0.2956
579.0;0.2731
579.5;0.2523
580.0;0.2328
580.5;0.2150
581.0;0.1983
581.5;0.1826
582.0;0.1682
582.5;0.1551
583.0;0.1427
583.5;0.1314
584.0;0.1209
584.5;0.1114
585.0;0.1025
585.5;0.0943
586.0;0.0866
586.5;0.0797
587.0;0.0731
587.5;0.0670
588.0;0.0616
588.5;0.0565
589.0;0.0519
589.5;0.0476
590.0;0.0437
590.5;0.0402
591.0;0.0368
591.5;0.0337
592.0;0.0310
592.5;0.0284
593.0;0.0260
593.5;0.0239
594.0;0.0219
594.5;0.0201
595.0;0.0185
595.5;0.0171
596.0;0.0156
596.5;0.0144
597.0;0.0131
597.5;0.0120
598.0;0.0111
598.5;0.0102
599.0;0.0093
599.5;0.0086
600.0;0.0079
600.5;0.0073
601.0;0.0066
601.5;0.0060
602.0;0.0056
602.5;0.0052
603.0;0.0047
603.5;0.0043
604.0;0.0041
604.5;0.0037
605.0;0.0034
605.5;0.0031
606.0;0.0028
606.5;0.0026
607.0;0.0024
607.5;0.0020
608.0;0.0020
608.5;0.0017
609.0;0.0017
609.5;0.0015
610.0;0.0012
610.5;0.0012
611.0;0.0010
611.5;0.0008
612.0;0.0008
612.5;0.0007
613.0;0.0007
613.5;0.0005
614.0;0.0005
614.5;0.0004
615.0;0.0003
615.5;0.0002
616.0;0.0002
616.5;0.0001
617.0;0.0002
617.5;0.0001
618.0;-0.0001
618.5;-0.0001
619.0;-0.0001
619.5;-0.0002
620.0;-0.0003
620.5;-0.0004
621.0;-0.0004
621.5;-0.0004
622.0;-0.0004
622.5;-0.0005
623.0;-0.0005
623.5;-0.0005
624.0;-0.0006
624.5;-0.0006
625.0;-0.0007
625.5;-0.0007
626.0;-0.0008
626.5;-0.0007
627.0;-0.0007
627.5;-0.0008
628.0;-0.0008
628.5;-0.0008
629.0;-0.0008
629.5;-0.0009
630.0;-0.0009
630.5;-0.0009
631.0;-0.0010
631.5;-0.0009
632.0;-0.0009
632.5;-0.0010
633.0;-0.0010
633.5;-0.0010
634.0;-0.0011
634.5;-0.0010
635.0;-0.0011
635.5;-0.0011
636.0;-0.0011
636.5;-0.0011
637.0;-0.0012
637.5;-0.0012
638.0;-0.0012
638.5;-0.0011
639.0;-0.0012
639.5;-0.0011
640.0;-0.0012
640.5;-0.0013
641.0;-0.0013
641.5;-0.0013
642.0;-0.0013
642.5;-0.0013
643.0;-0.0013
643.5;-0.0013
644.0;-0.0013
644.5;-0.0014
645.0;-0.0013
645.5;-0.0012
646.0;-0.0014
646.5;-0.0014
647.0;-0.0014
647.5;-0.0014
648.0;-0.0014
648.5;-0.0013
649.0;-0.0014
649.5;-0.0013
650.0;-0.0014
650.5;-0.0014
651.0;-0.0014
651.5;-0.0015
652.0;-0.0014
652.5;-0.0014
653.0;-0.0015
653.5;-0.0014
654.0;-0.0014
654.5;-0.0014
655.0;-0.0015
655.5;-0.0015
656.0;-0.0016
656.5;-0.0015
657.0;-0.0015
657.5;-0.0015
658.0;-0.0015
658.5;-0.0015
659.0;-0.0015
659.5;-0.0015
660.0;-0.0016
660.5;-0.0015
661.0;-0.0016
661.5;-0.0015
662.0;-0.0016
662.5;-0.0015
663.0;-0.0016
663.5;-0.0017
664.0;-0.0016
664.5;-0.0016
665.0;-0.0016
665.5;-0.0017
666.0;-0.0017
666.5;-0.0017
667.0;-0.0016
667.5;-0.0017
668.0;-0.0017
668.5;-0.0016
669.0;-0.0017
669.5;-0.0017
670.0;-0.0017
670.5;-0.0017
671.0;-0.0017
671.5;-0.0017
672.0;-0.0018
672.5;-0.0018
673.0;-0.0018
673.5;-0.0017
674.0;-0.0017
674.5;-0.0017
675.0;-0.0018
675.5;-0.0017
676.0;-0.0018
676.5;-0.0019
677.0;-0.0018
677.5;-0.0017
678.0;-0.0017
678.5;-0.0018
679.0;-0.0018
679.5;-0.0018
680.0;-0.0018
680.5;-0.0018
681.0;-0.0017
681.5;-0.0018
682.0;-0.0018
682.5;-0.0018
683.0;-0.0018
683.5;-0.0018
684.0;-0.0018
684.5;-0.0018
685.0;-0.0018
685.5;-0.0018
686.0;-0.0018
686.5;-0.0017
687.0;-0.0018
687.5;-0.0017
688.0;-0.0018
688.5;-0.0017
689.0;-0.0017
689.5;-0.0018
690.0;-0.0017
690.5;-0.0017
691.0;-0.0017
691.5;-0.0017
692.0;-0.0016
692.5;-0.0018
693.0;-0.0017
693.5;-0.0017
694.0;-0.0017
694.5;-0.0017
695.0;-0.0017
695.5;-0.0017
696.0;-0.0017
696.5;-0.0017
697.0;-0.0017
697.5;-0.0017
698.0;-0.0018
698.5;-0.0016
699.0;-0.0017
699.5;-0.0017
700.0;-0.0018
700.5;-0.0018
701.0;-0.0019
701.5;-0.0018
702.0;-0.0018
702.5;-0.0018
703.0;-0.0018
703.5;-0.0019
704.0;-0.0018
704.5;-0.0018
705.0;-0.0018
705.5;-0.0019
706.0;-0.0019
706.5;-0.0019
707.0;-0.0018
707.5;-0.0019
708.0;-0.0018
708.5;-0.0018
709.0;-0.0019
709.5;-0.0018
710.0;-0.0018
710.5;-0.0019
711.0;-0.0018
711.5;-0.0019
712.0;-0.0019
712.5;-0.0019
713.0;-0.0019
713.5;-0.0018
714.0;-0.0019
714.5;-0.0018
715.0;-0.0019
715.5;-0.0018
716.0;-0.0019
716.5;-0.0019
717.0;-0.0019
717.5;-0.0019
718.0;-0.0019
718.5;-0.0019
719.0;-0.0019
719.5;-0.0018
720.0;-0.0019
720.5;-0.0020
721.0;-0.0020
721.5;-0.0019
722.0;-0.0019
722.5;-0.0020
723.0;-0.0020
723.5;-0.0020
724.0;-0.0021
724.5;-0.0020
725.0;-0.0020
725.5;-0.0020
726.0;-0.0020
726.5;-0.0020
727.0;-0.0020
727.5;-0.0020
728.0;-0.0020
728.5;-0.0020
729.0;-0.0020
729.5;-0.0020
730.0;-0.0020
730.5;-0.0021
731.0;-0.0020
731.5;-0.0021
732.0;-0.0021
732.5;-0.0022
733.0;-0.0021
733.5;-0.0021
734.0;-0.0021
734.5;-0.0021
735.0;-0.0021
735.5;-0.0020
736.0;-0.0021
736.5;-0.0021
737.0;-0.0022
737.5;-0.0021
738.0;-0.0021
738.5;-0.0022
739.0;-0.0021
739.5;-0.0021
740.0;-0.0022
740.5;-0.0021
741.0;-0.0021
741.5;-0.0022
742.0;-0.0021
742.5;-0.0022
743.0;-0.0022
743.5;-0.0022
744.0;-0.0021
744.5;-0.0021
745.0;-0.0021
745.5;-0.0022
746.0;-0.0022
746.5;-0.0021
747.0;-0.0022
747.5;-0.0022
748.0;-0.0022
748.5;-0.0022
749.0;-0.0022
749.5;-0.0022
750.0;-0.0023
750.5;-0.0022
751.0;-0.0022
751.5;-0.0021
752.0;-0.0023
752.5;-0.0022
753.0;-0.0022
753.5;-0.0023
754.0;-0.0022
754.5;-0.0022
755.0;-0.0022
755.5;-0.0023
756.0;-0.0021
756.5;-0.0022
757.0;-0.0023
757.5;-0.0022
758.0;-0.0022
758.5;-0.0022
759.0;-0.0023
759.5;-0.0023
760.0;-0.0023
760.5;-0.0023
761.0;-0.0022
761.5;-0.0023
762.0;-0.0023
762.5;-0.0023
763.0;-0.0022
763.5;-0.0023
764.0;-0.0023
764.5;-0.0023
765.0;-0.0023
765.5;-0.0022
766.0;-0.0023
766.5;-0.0023
767.0;-0.0023
767.5;-0.0023
768.0;-0.0023
768.5;-0.0023
769.0;-0.0024
769.5;-0.0024
770.0;-0.0023
770.5;-0.0025
771.0;-0.0024
771.5;-0.0024
772.0;-0.0024
772.5;-0.0024
773.0;-0.0024
773.5;-0.0024
774.0;-0.0024
774.5;-0.0025
775.0;-0.0024
775.5;-0.0024
776.0;-0.0024
776.5;-0.0024
777.0;-0.0025
777.5;-0.0024
778.0;-0.0025
778.5;-0.0024
779.0;-0.0024
779.5;-0.0024
780.0;-0.0026
780.5;-0.0024
781.0;-0.0024
781.5;-0.0025
782.0;-0.0025
782.5;-0.0025
783.0;-0.0025
783.5;-0.0025
784.0;-0.0025
784.5;-0.0025
785.0;-0.0025
785.5;-0.0025
786.0;-0.0024
786.5;-0.0025
787.0;-0.0025
787.5;-0.0025
788.0;-0.0025
788.5;-0.0025
789.0;-0.0026
789.5;-0.0026
790.0;-0.0026
790.5;-0.0025
791.0;-0.0025
791.5;-0.0026
792.0;-0.0026
792.5;-0.0025
793.0;-0.0026
793.5;-0.0025
794.0;-0.0026
794.5;-0.0025
795.0;-0.0026
795.5;-0.0027
796.0;-0.0026
796.5;-0.0027
797.0;-0.0027
797.5;-0.0026
798.0;-0.0027
798.5;-0.0026
799.0;-0.0026
799.5;-0.0027
800.0;-0.0027
800.5;-0.0027
801.0;-0.0027
801.5;-0.0027
802.0;-0.0027
802.5;-0.0027
803.0;-0.0027
803.5;-0.0027
804.0;-0.0028
804.5;-0.0027
805.0;-0.0027
805.5;-0.0028
806.0;-0.0027
806.5;-0.0026
807.0;-0.0028
807.5;-0.0027
808.0;-0.0027
808.5;-0.0028
809.0;-0.0027
809.5;-0.0027
810.0;-0.0027
810.5;-0.0027
811.0;-0.0027
811.5;-0.0027
812.0;-0.0027
812.5;-0.0028
813.0;-0.0028
813.5;-0.0028
814.0;-0.0028
814.5;-0.0028
815.0;-0.0029
815.5;-0.0028
816.0;-0.0028
816.5;-0.0028
817.0;-0.0028
817.5;-0.0029
818.0;-0.0027
818.5;-0.0028
819.0;-0.0029
819.5;-0.0028
820.0;-0.0028
820.5;-0.0027
821.0;-0.0028
821.5;-0.0028
822.0;-0.0029
822.5;-0.0028
823.0;-0.0030
823.5;-0.0029
824.0;-0.0028
824.5;-0.0030
825.0;-0.0029
825.5;-0.0029
826.0;-0.0029
826.5;-0.0029
827.0;-0.0028
827.5;-0.0027
828.0;-0.0027
828.5;-0.0027
829.0;-0.0027
829.5;-0.0027
830.0;-0.0026
830.5;-0.0026
831.0;-0.0026
831.5;-0.0025
832.0;-0.0025
832.5;-0.0025
833.0;-0.0026
833.5;-0.0025
834.0;-0.0026
834.5;-0.0026
835.0;-0.0026
835.5;-0.0026
836.0;-0.0027
836.5;-0.0026
837.0;-0.0027
837.5;-0.0026
838.0;-0.0027
838.5;-0.0028
839.0;-0.0027
839.5;-0.0028
840.0;-0.0028
840.5;-0.0028
841.0;-0.0028
841.5;-0.0029
842.0;-0.0028
842.5;-0.0029
843.0;-0.0028
843.5;-0.0028
844.0;-0.0029
844.5;-0.0029
845.0;-0.0028
845.5;-0.0029
846.0;-0.0029
846.5;-0.0028
847.0;-0.0029
847.5;-0.0029
848.0;-0.0029
848.5;-0.0029
849.0;-0.0029
849.5;-0.0029
850.0;-0.0029
850.5;-0.0029
851.0;-0.0030
851.5;-0.0029
852.0;-0.0030
852.5;-0.0030
853.0;-0.0030
853.5;-0.0030
854.0;-0.0030
854.5;-0.0030
855.0;-0.0030
855.5;-0.0030
856.0;-0.0031
856.5;-0.0030
857.0;-0.0030
857.5;-0.0030
858.0;-0.0030
858.5;-0.0031
859.0;-0.0031
859.5;-0.0031
860.0;-0.0032
860.5;-0.0031
861.0;-0.0031
861.5;-0.0031
862.0;-0.0031
862.5;-0.0031
863.0;-0.0031
863.5;-0.0031
864.0;-0.0032
864.5;-0.0032
865.0;-0.0032
865.5;-0.0032
866.0;-0.0031
866.5;-0.0032
867.0;-0.0032
867.5;-0.0032
868.0;-0.0032
868.5;-0.0032
869.0;-0.0032
869.5;-0.0032
870.0;-0.0033
870.5;-0.0032
871.0;-0.0033
871.5;-0.0031
872.0;-0.0032
872.5;-0.0031
873.0;-0.0033
873.5;-0.0032
874.0;-0.0033
874.5;-0.0034
875.0;-0.0034
875.5;-0.0033
876.0;-0.0033
876.5;-0.0034
877.0;-0.0033
877.5;-0.0033
878.0;-0.0034
878.5;-0.0033
879.0;-0.0034
879.5;-0.0033
880.0;-0.0034
880.5;-0.0033
881.0;-0.0034
881.5;-0.0034
882.0;-0.0034
882.5;-0.0033
883.0;-0.0034
883.5;-0.0034
884.0;-0.0034
884.5;-0.0034
885.0;-0.0034
885.5;-0.0034
886.0;-0.0035
886.5;-0.0035
887.0;-0.0035
887.5;-0.0035
888.0;-0.0035
888.5;-0.0034
889.0;-0.0035
889.5;-0.0035
890.0;-0.0035
890.5;-0.0035
891.0;-0.0035
891.5;-0.0035
892.0;-0.0035
892.5;-0.0036
893.0;-0.0036
893.5;-0.0036
894.0;-0.0035
894.5;-0.0035
895.0;-0.0035
895.5;-0.0036
896.0;-0.0035
896.5;-0.0035
897.0;-0.0035
897.5;-0.0036
898.0;-0.0036
898.5;-0.0036
899.0;-0.0036
899.5;-0.0036
900.0;-0.0036
900.5;-0.0036
901.0;-0.0037
901.5;-0.0036
902.0;-0.0036
902.5;-0.0036
903.0;-0.0037
903.5;-0.0036
904.0;-0.0036
904.5;-0.0036
905.0;-0.0036
905.5;-0.0036
906.0;-0.0036
906.5;-0.0037
907.0;-0.0036
907.5;-0.0037
908.0;-0.0037
908.5;-0.0037
909.0;-0.0036
909.5;-0.0037
910.0;-0.0037
910.5;-0.0037
911.0;-0.0038
911.5;-0.0036
912.0;-0.0037
912.5;-0.0037
913.0;-0.0037
913.5;-0.0037
914.0;-0.0038
914.5;-0.0038
915.0;-0.0038
915.5;-0.0038
916.0;-0.0037
916.5;-0.0038
917.0;-0.0037
917.5;-0.0037
918.0;-0.0037
918.5;-0.0038
919.0;-0.0038
919.5;-0.0038
920.0;-0.0038
920.5;-0.0037
921.0;-0.0038
921.5;-0.0038
922.0;-0.0038
922.5;-0.0038
923.0;-0.0039
923.5;-0.0038
924.0;-0.0038
924.5;-0.0038
925.0;-0.0038
925.5;-0.0038
926.0;-0.0038
926.5;-0.0038
927.0;-0.0038
927.5;-0.0039
928.0;-0.0039
928.5;-0.0038
929.0;-0.0038
929.5;-0.0039
930.0;-0.0039
930.5;-0.0038
931.0;-0.0039
931.5;-0.0038
932.0;-0.0039
932.5;-0.0039
933.0;-0.0040
933.5;-0.0039
934.0;-0.0039
934.5;-0.0039
935.0;-0.0039
935.5;-0.0040
936.0;-0.0039
936.5;-0.0039
937.0;-0.0039
937.5;-0.0039
938.0;-0.0040
938.5;-0.0039
939.0;-0.0040
939.5;-0.0039
940.0;-0.0039
940.5;-0.0039
941.0;-0.0039
941.5;-0.0039
942.0;-0.0039
942.5;-0.0040
943.0;-0.0040
943.5;-0.0040
944.0;-0.0039
944.5;-0.0039
945.0;-0.0039
945.5;-0.0040
946.0;-0.0039
946.5;-0.0038
947.0;-0.0039
947.5;-0.0038
948.0;-0.0038
948.5;-0.0038
949.0;-0.0038
949.5;-0.0038
950.0;-0.0039
950.5;-0.0038
951.0;-0.0038
951.5;-0.0038
952.0;-0.0038
952.5;-0.0038
953.0;-0.0038
953.5;-0.0038
954.0;-0.0038
954.5;-0.0037
955.0;-0.0038
955.5;-0.0038
956.0;-0.0037
956.5;-0.0036
957.0;-0.0036
957.5;-0.0038
958.0;-0.0037
958.5;-0.0036
959.0;-0.0036
959.5;-0.0036
960.0;-0.0036
960.5;-0.0036
961.0;-0.0036
961.5;-0.0036
962.0;-0.0036
962.5;-0.0036
963.0;-0.0036
963.5;-0.0036
964.0;-0.0036
964.5;-0.0036
965.0;-0.0036
965.5;-0.0036
966.0;-0.0036
966.5;-0.0036
967.0;-0.0036
967.5;-0.0035
968.0;-0.0035
968.5;-0.0036
969.0;-0.0036
969.5;-0.0036
970.0;-0.0036
970.5;-0.0034
971.0;-0.0036
971.5;-0.0036
972.0;-0.0035
972.5;-0.0035
973.0;-0.0035
973.5;-0.0036
974.0;-0.0035
974.5;-0.0035
975.0;-0.0035
975.5;-0.0034
976.0;-0.0035
976.5;-0.0035
977.0;-0.0034
977.5;-0.0034
978.0;-0.0035
978.5;-0.0034
979.0;-0.0034
979.5;-0.0034
980.0;-0.0034
980.5;-0.0034
981.0;-0.0034
981.5;-0.0034
982.0;-0.0034
982.5;-0.0034
983.0;-0.0034
983.5;-0.0034
984.0;-0.0034
984.5;-0.0034
985.0;-0.0033
985.5;-0.0033
986.0;-0.0033
986.5;-0.0034
987.0;-0.0033
987.5;-0.0033
988.0;-0.0033
988.5;-0.0033
989.0;-0.0033
989.5;-0.0033
990.0;-0.0032
990.5;-0.0033
991.0;-0.0033
991.5;-0.0033
992.0;-0.0032
992.5;-0.0031
993.0;-0.0032
993.5;-0.0031
994.0;-0.0031
994.5;-0.0031
995.0;-0.0031
995.5;-0.0031
996.0;-0.0032
996.5;-0.0031
997.0;-0.0031
997.5;-0.0030
998.0;-0.0030
998.5;-0.0030
999.0;-0.0030
999.5;-0.0030
1000.0;-0.0031
1000.5;-0.0031
1001.0;-0.0030
1001.5;-0.0029
1002.0;-0.0030
1002.5;-0.0029
1003.0;-0.0029
1003.5;-0.0030
1004.0;-0.0029
1004.5;-0.0029
1005.0;-0.0029
1005.5;-0.0028
1006.0;-0.0028
1006.5;-0.0027
1007.0;-0.0028
1007.5;-0.0027
1008.0;-0.0026
1008.5;-0.0027
1009.0;-0.0026
1009.5;-0.0026
1010.0;-0.0026
1010.5;-0.0025
1011.0;-0.0025
1011.5;-0.0026
1012.0;-0.0025
1012.5;-0.0025
1013.0;-0.0025
1013.5;-0.0024
1014.0;-0.0023
1014.5;-0.0024
1015.0;-0.0024
1015.5;-0.0023
1016.0;-0.0022
1016.5;-0.0023
1017.0;-0.0022
1017.5;-0.0022
1018.0;-0.0022
1018.5;-0.0022
1019.0;-0.0021
1019.5;-0.0021
1020.0;-0.0021
1020.5;-0.0020
1021.0;-0.0019
1021.5;-0.0018
1022.0;-0.0020
1022.5;-0.0017
1023.0;-0.0018
1023.5;-0.0018
1024.0;-0.0017
1024.5;-0.0017
1025.0;-0.0016
1025.5;-0.0016
1026.0;-0.0016
1026.5;-0.0015
1027.0;-0.0015
1027.5;-0.0013
1028.0;-0.0013
1028.5;-0.0013
1029.0;-0.0013
1029.5;-0.0012
1030.0;-0.0012
1030.5;-0.0011
1031.0;-0.0011
1031.5;-0.0011
1032.0;-0.0010
1032.5;-0.0009
1033.0;-0.0010
1033.5;-0.0008
1034.0;-0.0009
1034.5;-0.0007
1035.0;-0.0007
1035.5;-0.0007
1036.0;-0.0005
1036.5;-0.0005
1037.0;-0.0004
1037.5;-0.0004
1038.0;-0.0004
1038.5;-0.0003
1039.0;-0.0003
1039.5;-0.0002
1040.0;-0.0001
1040.5;-0.0001
1041.0;0.0000
1041.5;0.0000
1042.0;0.0000
1042.5;0.0001
1043.0;0.0002
1043.5;0.0003
1044.0;0.0002
1044.5;0.0003
1045.0;0.0004
1045.5;0.0005
1046.0;0.0005
1046.5;0.0005
1047.0;0.0006
1047.5;0.0006
1048.0;0.0008
1048.5;0.0007
1049.0;0.0009
1049.5;0.0009
1050.0;0.0009
1050.5;0.0010
1051.0;0.0011
1051.5;0.0010
1052.0;0.0012
1052.5;0.0012
1053.0;0.0012
1053.5;0.0013
1054.0;0.0013
1054.5;0.0015
1055.0;0.0016
1055.5;0.0016
1056.0;0.0016
1056.5;0.0020
1057.0;0.0020
1057.5;0.0024
1058.0;0.0023
1058.5;0.0023
1059.0;0.0025
1059.5;0.0027
1060.0;0.0027
1060.5;0.0028
1061.0;0.0028
1061.5;0.0028
1062.0;0.0028
1062.5;0.0025
1063.0;0.0024
1063.5;0.0023
1064.0;0.0022
1064.5;0.0023
1065.0;0.0022
1065.5;0.0021
1066.0;0.0019
1066.5;0.0020
1067.0;0.0019
1067.5;0.0021
1068.0;0.0021
1068.5;0.0020
1069.0;0.0017
1069.5;0.0019
1070.0;0.0017
1070.5;0.0020
1071.0;0.0021
1071.5;0.0021
1072.0;0.0021
1072.5;0.0021
1073.0;0.0022
1073.5;0.0020
1074.0;0.0021
1074.5;0.0020
1075.0;0.0022
1075.5;0.0022
1076.0;0.0022
1076.5;0.0022
1077.0;0.0024
1077.5;0.0020
1078.0;0.0026
1078.5;0.0022
1079.0;0.0023
1079.5;0.0024
1080.0;0.0024
1080.5;0.0025
1081.0;0.0024
1081.5;0.0026
1082.0;0.0024
1082.5;0.0025
1083.0;0.0025
1083.5;0.0027
1084.0;0.0025
1084.5;0.0027
1085.0;0.0025
1085.5;0.0028
1086.0;0.0027
1086.5;0.0024
1087.0;0.0026
1087.5;0.0026
1088.0;0.0029
1088.5;0.0027
1089.0;0.0028
1089.5;0.0028
1090.0;0.0029
1090.5;0.0031
1091.0;0.0029
1091.5;0.0029
1092.0;0.0029
1092.5;0.0030
1093.0;0.0030
1093.5;0.0032
1094.0;0.0032
1094.5;0.0032
1095.0;0.0032
1095.5;0.0032
1096.0;0.0034
1096.5;0.0032
1097.0;0.0031
1097.5;0.0031
1098.0;0.0030
1098.5;0.0030
1099.0;0.0030
1099.5;0.0035
1100.0;0.0032
