[nm];[A];
;Sample 1;
190.0;1.5687
190.5;1.0715
191.0;0.2505
191.5;1.6384
192.0;8.0000
192.5;1.7248
193.0;0.4531
193.5;1.1567
194.0;1.2702
194.5;1.3979
195.0;8.0000
195.5;0.7891
196.0;0.9167
196.5;0.6338
197.0;0.4268
197.5;0.6148
198.0;0.7792
198.5;0.8633
199.0;0.8009
199.5;1.4367
200.0;1.3327
200.5;1.2966
201.0;1.5053
201.5;1.5287
202.0;1.5476
202.5;1.5826
203.0;1.5907
203.5;1.6255
204.0;1.6388
204.5;1.6230
205.0;1.6415
205.5;1.6225
206.0;1.6224
206.5;1.6139
207.0;1.6144
207.5;1.6062
208.0;1.5980
208.5;1.5820
209.0;1.5640
209.5;1.5552
210.0;1.5508
210.5;1.5377
211.0;1.5297
211.5;1.5191
212.0;1.5153
212.5;1.5086
213.0;1.4984
213.5;1.4954
214.0;1.4901
214.5;1.4858
215.0;1.4830
215.5;1.4774
216.0;1.4742
216.5;1.4722
217.0;1.4718
217.5;1.4697
218.0;1.4674
218.5;1.4659
219.0;1.4645
219.5;1.4645
220.0;1.4627
220.5;1.4643
221.0;1.4636
221.5;1.4620
222.0;1.4601
222.5;1.4585
223.0;1.4575
223.5;1.4534
224.0;1.4500
224.5;1.4470
225.0;1.4431
225.5;1.4382
226.0;1.4305
226.5;1.4244
227.0;1.4173
227.5;1.4088
228.0;1.4002
228.5;1.3909
229.0;1.3847
229.5;1.3787
230.0;1.3706
230.5;1.3641
231.0;1.3576
231.5;1.3487
232.0;1.3425
232.5;1.3334
233.0;1.3281
233.5;1.3217
234.0;1.3154
234.5;1.3097
235.0;1.3065
235.5;1.3033
236.0;1.2998
236.5;1.2984
237.0;1.2968
237.5;1.2959
238.0;1.2911
238.5;1.2876
239.0;1.2803
239.5;1.2730
240.0;1.2650
240.5;1.2555
241.0;1.2449
241.5;1.2352
242.0;1.2269
242.5;1.2197
243.0;1.2122
243.5;1.2063
244.0;1.2019
244.5;1.1985
245.0;1.1969
245.5;1.1956
246.0;1.1963
246.5;1.1969
247.0;1.1996
247.5;1.2032
248.0;1.2074
248.5;1.2128
249.0;1.2185
249.5;1.2241
250.0;1.2314
250.5;1.2367
251.0;1.2428
251.5;1.2458
252.0;1.2510
252.5;1.2544
253.0;1.2570
253.5;1.2604
254.0;1.2628
254.5;1.2639
255.0;1.2659
255.5;1.2682
256.0;1.2691
256.5;1.2702
257.0;1.2710
257.5;1.2722
258.0;1.2728
258.5;1.2721
259.0;1.2705
259.5;1.2680
260.0;1.2639
260.5;1.2574
261.0;1.2485
261.5;1.2398
262.0;1.2266
262.5;1.2135
263.0;1.1993
263.5;1.1836
264.0;1.1688
264.5;1.1507
265.0;1.1349
265.5;1.1192
266.0;1.1036
266.5;1.0882
267.0;1.0747
267.5;1.0636
268.0;1.0517
268.5;1.0420
269.0;1.0334
269.5;1.0245
270.0;1.0165
270.5;1.0123
271.0;1.0081
271.5;1.0028
272.0;1.0007
272.5;0.9951
273.0;0.9925
273.5;0.9900
274.0;0.9887
274.5;0.9872
275.0;0.9844
275.5;0.9858
276.0;0.9838
276.5;0.9816
277.0;0.9825
277.5;0.9798
278.0;0.9781
278.5;0.9784
279.0;0.9786
279.5;0.9748
280.0;0.9756
280.5;0.9752
281.0;0.9731
281.5;0.9728
282.0;0.9709
282.5;0.9712
283.0;0.9706
283.5;0.9685
284.0;0.9666
284.5;0.9656
285.0;0.9638
285.5;0.9638
286.0;0.9610
286.5;0.9600
287.0;0.9593
287.5;0.9594
288.0;0.9550
288.5;0.9565
289.0;0.9520
289.5;0.9517
290.0;0.9496
290.5;0.9490
291.0;0.9463
291.5;0.9448
292.0;0.9452
292.5;0.9434
293.0;0.9402
293.5;0.9424
294.0;0.9402
294.5;0.9380
295.0;0.9393
295.5;0.9370
296.0;0.9391
296.5;0.9369
297.0;0.9383
297.5;0.9353
298.0;0.9366
298.5;0.9352
299.0;0.9365
299.5;0.9347
300.0;0.9332
300.5;0.9354
301.0;0.9352
301.5;0.9363
302.0;0.9343
302.5;0.9329
303.0;0.9318
303.5;0.9329
304.0;0.9337
304.5;0.9315
305.0;0.9298
305.5;0.9312
306.0;0.9294
306.5;0.9256
307.0;0.9228
307.5;0.9196
308.0;0.9166
308.5;0.9129
309.0;0.9040
309.5;0.8985
310.0;0.8918
310.5;0.8843
311.0;0.8776
311.5;0.8692
312.0;0.8604
312.5;0.8503
313.0;0.8397
313.5;0.8336
314.0;0.8222
314.5;0.8137
315.0;0.8056
315.5;0.7984
316.0;0.7884
316.5;0.7817
317.0;0.7742
317.5;0.7663
318.0;0.7622
318.5;0.7538
319.0;0.7479
319.5;0.7435
320.0;0.7440
320.5;0.7360
321.0;0.7326
321.5;0.7281
322.0;0.7247
322.5;0.7222
323.0;0.7181
323.5;0.7167
324.0;0.7145
324.5;0.7103
325.0;0.7085
325.5;0.7086
326.0;0.7048
326.5;0.7050
327.0;0.7051
327.5;0.7049
328.0;0.7053
328.5;0.7041
329.0;0.7031
329.5;0.7038
330.0;0.7053
330.5;0.7067
331.0;0.7053
331.5;0.7068
332.0;0.7080
332.5;0.7105
333.0;0.7103
333.5;0.7119
334.0;0.7141
334.5;0.7145
335.0;0.7175
335.5;0.7184
336.0;0.7197
336.5;0.7210
337.0;0.7217
337.5;0.7225
338.0;0.7253
338.5;0.7266
339.0;0.7266
339.5;0.7284
340.0;0.7281
340.5;0.7277
341.0;0.7285
341.5;0.7303
342.0;0.7308
342.5;0.7307
343.0;0.7319
343.5;0.7342
344.0;0.7340
344.5;0.7352
345.0;0.7376
345.5;0.7390
346.0;0.7404
346.5;0.7441
347.0;0.7453
347.5;0.7486
348.0;0.7520
348.5;0.7540
349.0;0.7568
349.5;0.7595
350.0;0.7624
350.5;0.7658
351.0;0.7679
351.5;0.7707
352.0;0.7719
352.5;0.7749
353.0;0.7772
353.5;0.7784
354.0;0.7785
354.5;0.7783
355.0;0.7780
355.5;0.7756
356.0;0.7748
356.5;0.7726
357.0;0.7699
357.5;0.7668
358.0;0.7642
358.5;0.7609
359.0;0.7572
359.5;0.7530
360.0;0.7473
360.5;0.7436
361.0;0.7394
361.5;0.7345
362.0;0.7307
362.5;0.7254
363.0;0.7211
363.5;0.7164
364.0;0.7116
364.5;0.7073
365.0;0.7034
365.5;0.6990
366.0;0.6949
366.5;0.6920
367.0;0.6876
367.5;0.6851
368.0;0.6818
368.5;0.6787
369.0;0.6753
369.5;0.6730
370.0;0.6705
370.5;0.6675
371.0;0.6652
371.5;0.6634
372.0;0.6616
372.5;0.6597
373.0;0.6583
373.5;0.6563
374.0;0.6545
374.5;0.6534
375.0;0.6527
375.5;0.6518
376.0;0.6499
376.5;0.6491
377.0;0.6490
377.5;0.6483
378.0;0.6464
378.5;0.6467
379.0;0.6460
379.5;0.6453
380.0;0.6447
380.5;0.6445
381.0;0.6449
381.5;0.6449
382.0;0.6445
382.5;0.6446
383.0;0.6439
383.5;0.6437
384.0;0.6440
384.5;0.6444
385.0;0.6442
385.5;0.6448
386.0;0.6445
386.5;0.6443
387.0;0.6442
387.5;0.6443
388.0;0.6445
388.5;0.6449
389.0;0.6447
389.5;0.6445
390.0;0.6449
390.5;0.6449
391.0;0.6446
391.5;0.6443
392.0;0.6443
392.5;0.6445
393.0;0.6447
393.5;0.6442
394.0;0.6430
394.5;0.6434
395.0;0.6437
395.5;0.6426
396.0;0.6430
396.5;0.6426
397.0;0.6417
397.5;0.6412
398.0;0.6410
398.5;0.6408
399.0;0.6403
399.5;0.6390
400.0;0.6390
400.5;0.6384
401.0;0.6379
401.5;0.6370
402.0;0.6362
402.5;0.6356
403.0;0.6350
403.5;0.6342
404.0;0.6338
404.5;0.6326
405.0;0.6319
405.5;0.6307
406.0;0.6302
406.5;0.6294
407.0;0.6280
407.5;0.6276
408.0;0.6270
408.5;0.6256
409.0;0.6249
409.5;0.6242
410.0;0.6234
410.5;0.6225
411.0;0.6217
411.5;0.6211
412.0;0.6203
412.5;0.6198
413.0;0.6194
413.5;0.6191
414.0;0.6192
414.5;0.6188
415.0;0.6187
415.5;0.6185
416.0;0.6181
416.5;0.6184
417.0;0.6182
417.5;0.6182
418.0;0.6178
418.5;0.6176
419.0;0.6167
419.5;0.6164
420.0;0.6160
420.5;0.6158
421.0;0.6147
421.5;0.6143
422.0;0.6134
422.5;0.6130
423.0;0.6118
423.5;0.6116
424.0;0.6103
424.5;0.6095
425.0;0.6084
425.5;0.6077
426.0;0.6061
426.5;0.6055
427.0;0.6044
427.5;0.6034
428.0;0.6022
428.5;0.6012
429.0;0.6000
429.5;0.5985
430.0;0.5975
430.5;0.5963
431.0;0.5956
431.5;0.5944
432.0;0.5935
432.5;0.5924
433.0;0.5912
433.5;0.5903
434.0;0.5892
434.5;0.5885
435.0;0.5873
435.5;0.5869
436.0;0.5861
436.5;0.5853
437.0;0.5844
437.5;0.5838
438.0;0.5830
438.5;0.5826
439.0;0.5819
439.5;0.5812
440.0;0.5807
440.5;0.5803
441.0;0.5799
441.5;0.5794
442.0;0.5790
442.5;0.5785
443.0;0.5782
443.5;0.5780
444.0;0.5776
444.5;0.5776
445.0;0.5775
445.5;0.5770
446.0;0.5768
446.5;0.5768
447.0;0.5766
447.5;0.5765
448.0;0.5763
448.5;0.5767
449.0;0.5766
449.5;0.5766
450.0;0.5768
450.5;0.5770
451.0;0.5767
451.5;0.5772
452.0;0.5771
452.5;0.5778
453.0;0.5778
453.5;0.5779
454.0;0.5782
454.5;0.5790
455.0;0.5792
455.5;0.5796
456.0;0.5800
456.5;0.5808
457.0;0.5809
457.5;0.5817
458.0;0.5828
458.5;0.5830
459.0;0.5842
459.5;0.5848
460.0;0.5854
460.5;0.5864
461.0;0.5872
461.5;0.5884
462.0;0.5893
462.5;0.5905
463.0;0.5916
463.5;0.5924
464.0;0.5939
464.5;0.5951
465.0;0.5967
465.5;0.5979
466.0;0.5986
466.5;0.6002
467.0;0.6021
467.5;0.6028
468.0;0.6045
468.5;0.6057
469.0;0.6069
469.5;0.6088
470.0;0.6109
470.5;0.6129
471.0;0.6146
471.5;0.6161
472.0;0.6177
472.5;0.6192
473.0;0.6210
473.5;0.6225
474.0;0.6241
474.5;0.6259
475.0;0.6277
475.5;0.6295
476.0;0.6313
476.5;0.6332
477.0;0.6351
477.5;0.6370
478.0;0.6392
478.5;0.6410
479.0;0.6431
479.5;0.6455
480.0;0.6477
480.5;0.6498
481.0;0.6526
481.5;0.6549
482.0;0.6576
482.5;0.6604
483.0;0.6634
483.5;0.6665
484.0;0.6698
484.5;0.6734
485.0;0.6769
485.5;0.6807
486.0;0.6846
486.5;0.6889
487.0;0.6933
487.5;0.6977
488.0;0.7024
488.5;0.7075
489.0;0.7130
489.5;0.7185
490.0;0.7242
490.5;0.7306
491.0;0.7366
491.5;0.7431
492.0;0.7499
492.5;0.7568
493.0;0.7641
493.5;0.7715
494.0;0.7788
494.5;0.7866
495.0;0.7942
495.5;0.8023
496.0;0.8103
496.5;0.8185
497.0;0.8268
497.5;0.8352
498.0;0.8439
498.5;0.8526
499.0;0.8613
499.5;0.8697
500.0;0.8783
500.5;0.8867
501.0;0.8950
501.5;0.9035
502.0;0.9116
502.5;0.9198
503.0;0.9281
503.5;0.9356
504.0;0.9434
504.5;0.9506
505.0;0.9578
505.5;0.9649
506.0;0.9715
506.5;0.9778
507.0;0.9839
507.5;0.9897
508.0;0.9954
508.5;1.0007
509.0;1.0056
509.5;1.0106
510.0;1.0151
510.5;1.0197
511.0;1.0239
511.5;1.0282
512.0;1.0325
512.5;1.0368
513.0;1.0408
513.5;1.0451
514.0;1.0493
514.5;1.0536
515.0;1.0579
515.5;1.0626
516.0;1.0675
516.5;1.0727
517.0;1.0783
517.5;1.0844
518.0;1.0909
518.5;1.0978
519.0;1.1052
519.5;1.1133
520.0;1.1219
520.5;1.1309
521.0;1.1409
521.5;1.1515
522.0;1.1627
522.5;1.1747
523.0;1.1873
523.5;1.2008
524.0;1.2151
524.5;1.2303
525.0;1.2462
525.5;1.2632
526.0;1.2809
526.5;1.2996
527.0;1.3188
527.5;1.3390
528.0;1.3598
528.5;1.3811
529.0;1.4034
529.5;1.4261
530.0;1.4497
530.5;1.4740
531.0;1.4986
531.5;1.5242
532.0;1.5502
532.5;1.5762
533.0;1.6026
533.5;1.6291
534.0;1.6557
534.5;1.6817
535.0;1.7080
535.5;1.7332
536.0;1.7586
536.5;1.7830
537.0;1.8069
537.5;1.8299
538.0;1.8525
538.5;1.8734
539.0;1.8936
539.5;1.9135
540.0;1.9312
540.5;1.9482
541.0;1.9637
541.5;1.9770
542.0;1.9899
542.5;2.0007
543.0;2.0109
543.5;2.0175
544.0;2.0255
544.5;2.0295
545.0;2.0325
545.5;2.0330
546.0;2.0330
546.5;2.0309
547.0;2.0245
547.5;2.0195
548.0;2.0112
548.5;2.0010
549.0;1.9883
549.5;1.9737
550.0;1.9582
550.5;1.9418
551.0;1.9214
551.5;1.9000
552.0;1.8770
552.5;1.8517
553.0;1.8255
553.5;1.7985
554.0;1.7681
554.5;1.7370
555.0;1.7049
555.5;1.6711
556.0;1.6369
556.5;1.6022
557.0;1.5664
557.5;1.5302
558.0;1.4934
558.5;1.4560
559.0;1.4180
559.5;1.3803
560.0;1.3422
560.5;1.3046
561.0;1.2673
561.5;1.2304
562.0;1.1945
562.5;1.1589
563.0;1.1247
563.5;1.0913
564.0;1.0588
564.5;1.0273
565.0;0.9967
565.5;0.9674
566.0;0.9393
566.5;0.9120
567.0;0.8860
567.5;0.8609
568.0;0.8369
568.5;0.8144
569.0;0.7928
569.5;0.7727
570.0;0.7535
570.5;0.7352
571.0;0.7181
571.5;0.7017
572.0;0.6862
572.5;0.6716
573.0;0.6578
573.5;0.6447
574.0;0.6326
574.5;0.6213
575.0;0.6108
575.5;0.6008
576.0;0.5916
576.5;0.5832
577.0;0.5752
577.5;0.5678
578.0;0.5609
578.5;0.5546
579.0;0.5487
579.5;0.5434
580.0;0.5382
580.5;0.5337
581.0;0.5294
581.5;0.5254
582.0;0.5215
582.5;0.5181
583.0;0.5151
583.5;0.5121
584.0;0.5093
584.5;0.5069
585.0;0.5046
585.5;0.5024
586.0;0.5004
586.5;0.4986
587.0;0.4969
587.5;0.4952
588.0;0.4938
588.5;0.4924
589.0;0.4911
589.5;0.4900
590.0;0.4889
590.5;0.4879
591.0;0.4869
591.5;0.4861
592.0;0.4853
592.5;0.4845
593.0;0.4838
593.5;0.4831
594.0;0.4825
594.5;0.4819
595.0;0.4813
595.5;0.4810
596.0;0.4803
596.5;0.4800
597.0;0.4794
597.5;0.4790
598.0;0.4787
598.5;0.4782
599.0;0.4779
599.5;0.4775
600.0;0.4773
600.5;0.4769
601.0;0.4765
601.5;0.4763
602.0;0.4761
602.5;0.4757
603.0;0.4754
603.5;0.4752
604.0;0.4750
604.5;0.4747
605.0;0.4745
605.5;0.4743
606.0;0.4740
606.5;0.4738
607.0;0.4736
607.5;0.4732
608.0;0.4731
608.5;0.4728
609.0;0.4726
609.5;0.4724
610.0;0.4722
610.5;0.4720
611.0;0.4718
611.5;0.4715
612.0;0.4714
612.5;0.4711
613.0;0.4710
613.5;0.4708
614.0;0.4706
614.5;0.4703
615.0;0.4701
615.5;0.4699
616.0;0.4696
616.5;0.4695
617.0;0.4694
617.5;0.4692
618.0;0.4689
618.5;0.4687
619.0;0.4686
619.5;0.4682
620.0;0.4681
620.5;0.4678
621.0;0.4676
621.5;0.4675
622.0;0.4673
622.5;0.4671
623.0;0.4669
623.5;0.4666
624.0;0.4665
624.5;0.4662
625.0;0.4660
625.5;0.4658
626.0;0.4656
626.5;0.4654
627.0;0.4653
627.5;0.4650
628.0;0.4648
628.5;0.4647
629.0;0.4644
629.5;0.4642
630.0;0.4640
630.5;0.4639
631.0;0.4637
631.5;0.4635
632.0;0.4634
632.5;0.4632
633.0;0.4629
633.5;0.4627
634.0;0.4625
634.5;0.4624
635.0;0.4623
635.5;0.4620
636.0;0.4620
636.5;0.4616
637.0;0.4615
637.5;0.4613
638.0;0.4611
638.5;0.4609
639.0;0.4607
639.5;0.4606
640.0;0.4604
640.5;0.4602
641.0;0.4601
641.5;0.4599
642.0;0.4597
642.5;0.4595
643.0;0.4594
643.5;0.4592
644.0;0.4590
644.5;0.4588
645.0;0.4587
645.5;0.4585
646.0;0.4582
646.5;0.4581
647.0;0.4579
647.5;0.4578
648.0;0.4576
648.5;0.4574
649.0;0.4573
649.5;0.4572
650.0;0.4569
650.5;0.4567
651.0;0.4565
651.5;0.4564
652.0;0.4562
652.5;0.4561
653.0;0.4560
653.5;0.4558
654.0;0.4556
654.5;0.4554
655.0;0.4553
655.5;0.4551
656.0;0.4549
656.5;0.4548
657.0;0.4546
657.5;0.4545
658.0;0.4543
658.5;0.4541
659.0;0.4540
659.5;0.4538
660.0;0.4536
660.5;0.4536
661.0;0.4534
661.5;0.4533
662.0;0.4530
662.5;0.4530
663.0;0.4528
663.5;0.4526
664.0;0.4525
664.5;0.4523
665.0;0.4521
665.5;0.4520
666.0;0.4518
666.5;0.4517
667.0;0.4516
667.5;0.4514
668.0;0.4512
668.5;0.4512
669.0;0.4509
669.5;0.4507
670.0;0.4506
670.5;0.4504
671.0;0.4502
671.5;0.4502
672.0;0.4499
672.5;0.4498
673.0;0.4496
673.5;0.4495
674.0;0.4493
674.5;0.4491
675.0;0.4489
675.5;0.4487
676.0;0.4485
676.5;0.4484
677.0;0.4481
677.5;0.4480
678.0;0.4477
678.5;0.4475
679.0;0.4475
679.5;0.4471
680.0;0.4470
680.5;0.4468
681.0;0.4467
681.5;0.4464
682.0;0.4462
682.5;0.4460
683.0;0.4459
683.5;0.4457
684.0;0.4454
684.5;0.4453
685.0;0.4451
685.5;0.4449
686.0;0.4448
686.5;0.4446
687.0;0.4444
687.5;0.4442
688.0;0.4440
688.5;0.4439
689.0;0.4437
689.5;0.4435
690.0;0.4434
690.5;0.4432
691.0;0.4430
691.5;0.4429
692.0;0.4428
692.5;0.4425
693.0;0.4423
693.5;0.4422
694.0;0.4421
694.5;0.4419
695.0;0.4417
695.5;0.4414
696.0;0.4413
696.5;0.4412
697.0;0.4410
697.5;0.4409
698.0;0.4406
698.5;0.4406
699.0;0.4404
699.5;0.4401
700.0;0.4402
700.5;0.4399
701.0;0.4397
701.5;0.4396
702.0;0.4394
702.5;0.4394
703.0;0.4391
703.5;0.4389
704.0;0.4388
704.5;0.4386
705.0;0.4385
705.5;0.4382
706.0;0.4381
706.5;0.4379
707.0;0.4377
707.5;0.4375
708.0;0.4373
708.5;0.4372
709.0;0.4370
709.5;0.4367
710.0;0.4366
710.5;0.4364
711.0;0.4362
711.5;0.4361
712.0;0.4359
712.5;0.4358
713.0;0.4355
713.5;0.4354
714.0;0.4351
714.5;0.4350
715.0;0.4349
715.5;0.4347
716.0;0.4344
716.5;0.4343
717.0;0.4341
717.5;0.4339
718.0;0.4336
718.5;0.4335
719.0;0.4333
719.5;0.4332
720.0;0.4330
720.5;0.4328
721.0;0.4326
721.5;0.4324
722.0;0.4322
722.5;0.4320
723.0;0.4319
723.5;0.4316
724.0;0.4314
724.5;0.4313
725.0;0.4311
725.5;0.4309
726.0;0.4308
726.5;0.4306
727.0;0.4304
727.5;0.4302
728.0;0.4301
728.5;0.4298
729.0;0.4297
729.5;0.4295
730.0;0.4292
730.5;0.4291
731.0;0.4290
731.5;0.4288
732.0;0.4286
732.5;0.4283
733.0;0.4283
733.5;0.4281
734.0;0.4278
734.5;0.4275
735.0;0.4275
735.5;0.4273
736.0;0.4270
736.5;0.4269
737.0;0.4266
737.5;0.4266
738.0;0.4264
738.5;0.4262
739.0;0.4261
739.5;0.4259
740.0;0.4257
740.5;0.4256
741.0;0.4254
741.5;0.4252
742.0;0.4251
742.5;0.4248
743.0;0.4247
743.5;0.4245
744.0;0.4244
744.5;0.4243
745.0;0.4241
745.5;0.4239
746.0;0.4237
746.5;0.4237
747.0;0.4234
747.5;0.4232
748.0;0.4231
748.5;0.4229
749.0;0.4226
749.5;0.4225
750.0;0.4223
750.5;0.4222
751.0;0.4220
751.5;0.4219
752.0;0.4217
752.5;0.4216
753.0;0.4214
753.5;0.4212
754.0;0.4211
754.5;0.4210
755.0;0.4208
755.5;0.4206
756.0;0.4206
756.5;0.4203
757.0;0.4202
757.5;0.4199
758.0;0.4199
758.5;0.4197
759.0;0.4195
759.5;0.4194
760.0;0.4192
760.5;0.4191
761.0;0.4189
761.5;0.4188
762.0;0.4186
762.5;0.4185
763.0;0.4184
763.5;0.4182
764.0;0.4180
764.5;0.4179
765.0;0.4177
765.5;0.4177
766.0;0.4175
766.5;0.4173
767.0;0.4172
767.5;0.4171
768.0;0.4170
768.5;0.4168
769.0;0.4166
769.5;0.4165
770.0;0.4163
770.5;0.4161
771.0;0.4159
771.5;0.4158
772.0;0.4158
772.5;0.4155
773.0;0.4154
773.5;0.4152
774.0;0.4151
774.5;0.4150
775.0;0.4148
775.5;0.4146
776.0;0.4145
776.5;0.4143
777.0;0.4141
777.5;0.4141
778.0;0.4140
778.5;0.4138
779.0;0.4136
779.5;0.4135
780.0;0.4133
780.5;0.4132
781.0;0.4130
781.5;0.4128
782.0;0.4127
782.5;0.4125
783.0;0.4124
783.5;0.4122
784.0;0.4121
784.5;0.4119
785.0;0.4118
785.5;0.4116
786.0;0.4116
786.5;0.4113
787.0;0.4112
787.5;0.4111
788.0;0.4109
788.5;0.4106
789.0;0.4106
789.5;0.4103
790.0;0.4103
790.5;0.4101
791.0;0.4099
791.5;0.4098
792.0;0.4095
792.5;0.4095
793.0;0.4094
793.5;0.4093
794.0;0.4090
794.5;0.4088
795.0;0.4087
795.5;0.4085
796.0;0.4084
796.5;0.4082
797.0;0.4081
797.5;0.4079
798.0;0.4078
798.5;0.4077
799.0;0.4075
799.5;0.4074
800.0;0.4072
800.5;0.4070
801.0;0.4069
801.5;0.4067
802.0;0.4067
802.5;0.4064
803.0;0.4063
803.5;0.4061
804.0;0.4060
804.5;0.4059
805.0;0.4058
805.5;0.4055
806.0;0.4054
806.5;0.4054
807.0;0.4051
807.5;0.4050
808.0;0.4048
808.5;0.4047
809.0;0.4046
809.5;0.4045
810.0;0.4044
810.5;0.4042
811.0;0.4041
811.5;0.4039
812.0;0.4038
812.5;0.4036
813.0;0.4034
813.5;0.4032
814.0;0.4032
814.5;0.4030
815.0;0.4029
815.5;0.4027
816.0;0.4026
816.5;0.4024
817.0;0.4023
817.5;0.4021
818.0;0.4021
818.5;0.4020
819.0;0.4017
819.5;0.4017
820.0;0.4015
820.5;0.4014
821.0;0.4012
821.5;0.4011
822.0;0.4008
822.5;0.4008
823.0;0.4007
823.5;0.4006
824.0;0.4006
824.5;0.4003
825.0;0.4002
825.5;0.4002
826.0;0.4000
826.5;0.3999
827.0;0.3998
827.5;0.3998
828.0;0.3996
828.5;0.3993
829.0;0.3992
829.5;0.3991
830.0;0.3990
830.5;0.3988
831.0;0.3986
831.5;0.3985
832.0;0.3983
832.5;0.3983
833.0;0.3981
833.5;0.3979
834.0;0.3977
834.5;0.3976
835.0;0.3975
835.5;0.3974
836.0;0.3972
836.5;0.3971
837.0;0.3970
837.5;0.3969
838.0;0.3967
838.5;0.3966
839.0;0.3965
839.5;0.3964
840.0;0.3963
840.5;0.3961
841.0;0.3960
841.5;0.3958
842.0;0.3958
842.5;0.3956
843.0;0.3956
843.5;0.3954
844.0;0.3952
844.5;0.3951
845.0;0.3949
845.5;0.3948
846.0;0.3946
846.5;0.3945
847.0;0.3943
847.5;0.3943
848.0;0.3940
848.5;0.3940
849.0;0.3939
849.5;0.3936
850.0;0.3936
850.5;0.3935
851.0;0.3932
851.5;0.3931
852.0;0.3930
852.5;0.3928
853.0;0.3926
853.5;0.3926
854.0;0.3924
854.5;0.3923
855.0;0.3922
855.5;0.3920
856.0;0.3917
856.5;0.3917
857.0;0.3915
857.5;0.3914
858.0;0.3913
858.5;0.3910
859.0;0.3909
859.5;0.3909
860.0;0.3907
860.5;0.3906
861.0;0.3904
861.5;0.3903
862.0;0.3902
862.5;0.3900
863.0;0.3900
863.5;0.3896
864.0;0.3896
864.5;0.3894
865.0;0.3894
865.5;0.3891
866.0;0.3890
866.5;0.3889
867.0;0.3887
867.5;0.3886
868.0;0.3884
868.5;0.3883
869.0;0.3882
869.5;0.3880
870.0;0.3878
870.5;0.3877
871.0;0.3875
871.5;0.3874
872.0;0.3873
872.5;0.3872
873.0;0.3869
873.5;0.3868
874.0;0.3867
874.5;0.3864
875.0;0.3864
875.5;0.3862
876.0;0.3861
876.5;0.3859
877.0;0.3858
877.5;0.3856
878.0;0.3855
878.5;0.3853
879.0;0.3852
879.5;0.3851
880.0;0.3849
880.5;0.3848
881.0;0.3847
881.5;0.3845
882.0;0.3843
882.5;0.3843
883.0;0.3840
883.5;0.3838
884.0;0.3838
884.5;0.3836
885.0;0.3835
885.5;0.3833
886.0;0.3831
886.5;0.3829
887.0;0.3828
887.5;0.3826
888.0;0.3826
888.5;0.3824
889.0;0.3821
889.5;0.3820
890.0;0.3819
890.5;0.3818
891.0;0.3816
891.5;0.3815
892.0;0.3814
892.5;0.3812
893.0;0.3810
893.5;0.3809
894.0;0.3807
894.5;0.3806
895.0;0.3805
895.5;0.3803
896.0;0.3801
896.5;0.3800
897.0;0.3798
897.5;0.3796
898.0;0.3795
898.5;0.3792
899.0;0.3792
899.5;0.3791
900.0;0.3788
900.5;0.3787
901.0;0.3785
901.5;0.3783
902.0;0.3782
902.5;0.3781
903.0;0.3779
903.5;0.3777
904.0;0.3777
904.5;0.3776
905.0;0.3774
905.5;0.3773
906.0;0.3772
906.5;0.3770
907.0;0.3769
907.5;0.3768
908.0;0.3767
908.5;0.3765
909.0;0.3764
909.5;0.3763
910.0;0.3761
910.5;0.3760
911.0;0.3758
911.5;0.3758
912.0;0.3757
912.5;0.3755
913.0;0.3754
913.5;0.3752
914.0;0.3752
914.5;0.3750
915.0;0.3749
915.5;0.3748
916.0;0.3747
916.5;0.3746
917.0;0.3745
917.5;0.3744
918.0;0.3743
918.5;0.3741
919.0;0.3741
919.5;0.3739
920.0;0.3739
920.5;0.3738
921.0;0.3736
921.5;0.3736
922.0;0.3735
922.5;0.3734
923.0;0.3732
923.5;0.3731
924.0;0.3731
924.5;0.3730
925.0;0.3729
925.5;0.3728
926.0;0.3726
926.5;0.3726
927.0;0.3724
927.5;0.3724
928.0;0.3722
928.5;0.3723
929.0;0.3722
929.5;0.3720
930.0;0.3720
930.5;0.3719
931.0;0.3718
931.5;0.3718
932.0;0.3716
932.5;0.3715
933.0;0.3714
933.5;0.3713
934.0;0.3712
934.5;0.3711
935.0;0.3711
935.5;0.3709
936.0;0.3708
936.5;0.3708
937.0;0.3707
937.5;0.3706
938.0;0.3705
938.5;0.3705
939.0;0.3703
939.5;0.3702
940.0;0.3702
940.5;0.3701
941.0;0.3699
941.5;0.3699
942.0;0.3699
942.5;0.3698
943.0;0.3697
943.5;0.3696
944.0;0.3695
944.5;0.3694
945.0;0.3693
945.5;0.3692
946.0;0.3690
946.5;0.3690
947.0;0.3689
947.5;0.3688
948.0;0.3687
948.5;0.3686
949.0;0.3685
949.5;0.3684
950.0;0.3682
950.5;0.3681
951.0;0.3680
951.5;0.3677
952.0;0.3675
952.5;0.3674
953.0;0.3672
953.5;0.3670
954.0;0.3668
954.5;0.3666
955.0;0.3664
955.5;0.3662
956.0;0.3660
956.5;0.3658
957.0;0.3655
957.5;0.3653
958.0;0.3652
958.5;0.3651
959.0;0.3649
959.5;0.3648
960.0;0.3646
960.5;0.3645
961.0;0.3644
961.5;0.3643
962.0;0.3641
962.5;0.3641
963.0;0.3639
963.5;0.3637
964.0;0.3637
964.5;0.3636
965.0;0.3635
965.5;0.3634
966.0;0.3633
966.5;0.3632
967.0;0.3631
967.5;0.3630
968.0;0.3629
968.5;0.3627
969.0;0.3627
969.5;0.3626
970.0;0.3624
970.5;0.3624
971.0;0.3622
971.5;0.3621
972.0;0.3622
972.5;0.3619
973.0;0.3619
973.5;0.3618
974.0;0.3617
974.5;0.3617
975.0;0.3616
975.5;0.3615
976.0;0.3613
976.5;0.3613
977.0;0.3612
977.5;0.3612
978.0;0.3610
978.5;0.3610
979.0;0.3609
979.5;0.3608
980.0;0.3607
980.5;0.3606
981.0;0.3606
981.5;0.3605
982.0;0.3605
982.5;0.3604
983.0;0.3602
983.5;0.3602
984.0;0.3601
984.5;0.3601
985.0;0.3600
985.5;0.3599
986.0;0.3599
986.5;0.3597
987.0;0.3598
987.5;0.3596
988.0;0.3596
988.5;0.3595
989.0;0.3595
989.5;0.3594
990.0;0.3594
990.5;0.3593
991.0;0.3592
991.5;0.3592
992.0;0.3592
992.5;0.3591
993.0;0.3590
993.5;0.3591
994.0;0.3590
994.5;0.3589
995.0;0.3591
995.5;0.3589
996.0;0.3589
996.5;0.3589
997.0;0.3588
997.5;0.3588
998.0;0.3587
998.5;0.3587
999.0;0.3587
999.5;0.3587
1000.0;0.3587
1000.5;0.3586
1001.0;0.3587
1001.5;0.3586
1002.0;0.3586
1002.5;0.3585
1003.0;0.3585
1003.5;0.3585
1004.0;0.3585
1004.5;0.3585
1005.0;0.3585
1005.5;0.3585
1006.0;0.3583
1006.5;0.3585
1007.0;0.3584
1007.5;0.3585
1008.0;0.3585
1008.5;0.3585
1009.0;0.3586
1009.5;0.3585
1010.0;0.3586
1010.5;0.3587
1011.0;0.3586
1011.5;0.3586
1012.0;0.3586
1012.5;0.3586
1013.0;0.3587
1013.5;0.3587
1014.0;0.3587
1014.5;0.3587
1015.0;0.3587
1015.5;0.3588
1016.0;0.3588
1016.5;0.3588
1017.0;0.3589
1017.5;0.3589
1018.0;0.3589
1018.5;0.3589
1019.0;0.3590
1019.5;0.3591
1020.0;0.3590
1020.5;0.3590
1021.0;0.3592
1021.5;0.3593
1022.0;0.3592
1022.5;0.3593
1023.0;0.3593
1023.5;0.3594
1024.0;0.3594
1024.5;0.3595
1025.0;0.3596
1025.5;0.3596
1026.0;0.3596
1026.5;0.3596
1027.0;0.3596
1027.5;0.3598
1028.0;0.3598
1028.5;0.3599
1029.0;0.3600
1029.5;0.3601
1030.0;0.3600
1030.5;0.3602
1031.0;0.3602
1031.5;0.3603
1032.0;0.3604
1032.5;0.3605
1033.0;0.3604
1033.5;0.3606
1034.0;0.3606
1034.5;0.3608
1035.0;0.3609
1035.5;0.3610
1036.0;0.3611
1036.5;0.3612
1037.0;0.3613
1037.5;0.3614
1038.0;0.3614
1038.5;0.3614
1039.0;0.3617
1039.5;0.3618
1040.0;0.3618
1040.5;0.3619
1041.0;0.3620
1041.5;0.3620
1042.0;0.3620
1042.5;0.3622
1043.0;0.3623
1043.5;0.3624
1044.0;0.3625
1044.5;0.3626
1045.0;0.3627
1045.5;0.3628
1046.0;0.3628
1046.5;0.3628
1047.0;0.3629
1047.5;0.3629
1048.0;0.3631
1048.5;0.3631
1049.0;0.3632
1049.5;0.3633
1050.0;0.3633
1050.5;0.3634
1051.0;0.3635
1051.5;0.3635
1052.0;0.3636
1052.5;0.3636
1053.0;0.3636
1053.5;0.3637
1054.0;0.3638
1054.5;0.3639
1055.0;0.3639
1055.5;0.3641
1056.0;0.3643
1056.5;0.3647
1057.0;0.3647
1057.5;0.3653
1058.0;0.3655
1058.5;0.3657
1059.0;0.3661
1059.5;0.3665
1060.0;0.3665
1060.5;0.3666
1061.0;0.3666
1061.5;0.3666
1062.0;0.3663
1062.5;0.3660
1063.0;0.3655
1063.5;0.3653
1064.0;0.3647
1064.5;0.3643
1065.0;0.3637
1065.5;0.3634
1066.0;0.3632
1066.5;0.3628
1067.0;0.3625
1067.5;0.3625
1068.0;0.3625
1068.5;0.3623
1069.0;0.3619
1069.5;0.3620
1070.0;0.3616
1070.5;0.3618
1071.0;0.3618
1071.5;0.3617
1072.0;0.3616
1072.5;0.3616
1073.0;0.3616
1073.5;0.3616
1074.0;0.3616
1074.5;0.3614
1075.0;0.3616
1075.5;0.3615
1076.0;0.3614
1076.5;0.3613
1077.0;0.3614
1077.5;0.3613
1078.0;0.3611
1078.5;0.3609
1079.0;0.3609
1079.5;0.3609
1080.0;0.3610
1080.5;0.3606
1081.0;0.3606
1081.5;0.3605
1082.0;0.3604
1082.5;0.3605
1083.0;0.3604
1083.5;0.3603
1084.0;0.3602
1084.5;0.3602
1085.0;0.3604
1085.5;0.3603
1086.0;0.3602
1086.5;0.3601
1087.0;0.3597
1087.5;0.3599
1088.0;0.3597
1088.5;0.3597
1089.0;0.3596
1089.5;0.3597
1090.0;0.3592
1090.5;0.3597
1091.0;0.3593
1091.5;0.3592
1092.0;0.3590
1092.5;0.3590
1093.0;0.3589
1093.5;0.3592
1094.0;0.3591
1094.5;0.3589
1095.0;0.3587
1095.5;0.3583
1096.0;0.3587
1096.5;0.3586
1097.0;0.3584
1097.5;0.3581
1098.0;0.3580
1098.5;0.3579
1099.0;0.3575
1099.5;0.3578
1100.0;0.3573
