[nm];[A];
;Sample 1;
190.0;0.2429
190.5;-0.0703
191.0;-0.0290
191.5;0.0796
192.0;0.1087
192.5;-0.1402
193.0;0.0599
193.5;0.1444
194.0;0.1139
194.5;0.1198
195.0;0.0591
195.5;-0.0505
196.0;-0.1196
196.5;0.1289
197.0;0.1751
197.5;0.1421
198.0;-0.0240
198.5;0.0642
199.0;0.0638
199.5;0.0788
200.0;0.0642
200.5;0.0758
201.0;0.0744
201.5;0.0608
202.0;0.0581
202.5;0.0535
203.0;0.0470
203.5;0.0430
204.0;0.0401
204.5;0.0341
205.0;0.0307
205.5;0.0272
206.0;0.0243
206.5;0.0218
207.0;0.0195
207.5;0.0182
208.0;0.0164
208.5;0.0147
209.0;0.0142
209.5;0.0135
210.0;0.0140
210.5;0.0142
211.0;0.0146
211.5;0.0150
212.0;0.0159
212.5;0.0169
213.0;0.0189
213.5;0.0206
214.0;0.0226
214.5;0.0247
215.0;0.0264
215.5;0.0280
216.0;0.0291
216.5;0.0302
217.0;0.0315
217.5;0.0332
218.0;0.0348
218.5;0.0367
219.0;0.0385
219.5;0.0402
220.0;0.0417
220.5;0.0428
221.0;0.0439
221.5;0.0445
222.0;0.0454
222.5;0.0460
223.0;0.0463
223.5;0.0471
224.0;0.0472
224.5;0.0476
225.0;0.0479
225.5;0.0479
226.0;0.0483
226.5;0.0480
227.0;0.0482
227.5;0.0484
228.0;0.0480
228.5;0.0483
229.0;0.0482
229.5;0.0482
230.0;0.0480
230.5;0.0481
231.0;0.0478
231.5;0.0482
232.0;0.0481
232.5;0.0483
233.0;0.0486
233.5;0.0490
234.0;0.0491
234.5;0.0495
235.0;0.0500
235.5;0.0505
236.0;0.0508
236.5;0.0510
237.0;0.0513
237.5;0.0513
238.0;0.0514
238.5;0.0514
239.0;0.0509
239.5;0.0505
240.0;0.0496
240.5;0.0485
241.0;0.0474
241.5;0.0469
242.0;0.0462
242.5;0.0451
243.0;0.0448
243.5;0.0439
244.0;0.0440
244.5;0.0440
245.0;0.0444
245.5;0.0444
246.0;0.0450
246.5;0.0457
247.0;0.0464
247.5;0.0473
248.0;0.0485
248.5;0.0496
249.0;0.0508
249.5;0.0517
250.0;0.0528
250.5;0.0540
251.0;0.0549
251.5;0.0562
252.0;0.0568
252.5;0.0574
253.0;0.0587
253.5;0.0589
254.0;0.0600
254.5;0.0600
255.0;0.0607
255.5;0.0613
256.0;0.0611
256.5;0.0613
257.0;0.0619
257.5;0.0626
258.0;0.0623
258.5;0.0628
259.0;0.0627
259.5;0.0625
260.0;0.0625
260.5;0.0610
261.0;0.0602
261.5;0.0589
262.0;0.0577
262.5;0.0559
263.0;0.0541
263.5;0.0524
264.0;0.0506
264.5;0.0487
265.0;0.0463
265.5;0.0446
266.0;0.0426
266.5;0.0406
267.0;0.0391
267.5;0.0379
268.0;0.0361
268.5;0.0350
269.0;0.0338
269.5;0.0332
270.0;0.0327
270.5;0.0319
271.0;0.0314
271.5;0.0302
272.0;0.0308
272.5;0.0297
273.0;0.0297
273.5;0.0294
274.0;0.0294
274.5;0.0295
275.0;0.0288
275.5;0.0300
276.0;0.0287
276.5;0.0290
277.0;0.0293
277.5;0.0293
278.0;0.0287
278.5;0.0296
279.0;0.0297
279.5;0.0290
280.0;0.0302
280.5;0.0290
281.0;0.0298
281.5;0.0292
282.0;0.0291
282.5;0.0290
283.0;0.0295
283.5;0.0299
284.0;0.0288
284.5;0.0296
285.0;0.0295
285.5;0.0293
286.0;0.0291
286.5;0.0292
287.0;0.0295
287.5;0.0280
288.0;0.0273
288.5;0.0288
289.0;0.0285
289.5;0.0278
290.0;0.0277
290.5;0.0284
291.0;0.0284
291.5;0.0281
292.0;0.0279
292.5;0.0272
293.0;0.0273
293.5;0.0276
294.0;0.0272
294.5;0.0272
295.0;0.0273
295.5;0.0276
296.0;0.0273
296.5;0.0277
297.0;0.0275
297.5;0.0284
298.0;0.0282
298.5;0.0283
299.0;0.0281
299.5;0.0286
300.0;0.0291
300.5;0.0287
301.0;0.0286
301.5;0.0295
302.0;0.0284
302.5;0.0299
303.0;0.0301
303.5;0.0301
304.0;0.0288
304.5;0.0301
305.0;0.0297
305.5;0.0307
306.0;0.0300
306.5;0.0293
307.0;0.0281
307.5;0.0307
308.0;0.0294
308.5;0.0279
309.0;0.0277
309.5;0.0268
310.0;0.0258
310.5;0.0243
311.0;0.0241
311.5;0.0231
312.0;0.0223
312.5;0.0217
313.0;0.0197
313.5;0.0188
314.0;0.0176
314.5;0.0171
315.0;0.0156
315.5;0.0157
316.0;0.0137
316.5;0.0123
317.0;0.0110
317.5;0.0112
318.0;0.0097
318.5;0.0109
319.0;0.0093
319.5;0.0080
320.0;0.0056
320.5;0.0083
321.0;0.0071
321.5;0.0072
322.0;0.0073
322.5;0.0073
323.0;0.0070
323.5;0.0051
324.0;0.0051
324.5;0.0059
325.0;0.0033
325.5;0.0048
326.0;0.0059
326.5;0.0056
327.0;0.0034
327.5;0.0046
328.0;0.0054
328.5;0.0054
329.0;0.0046
329.5;0.0053
330.0;0.0048
330.5;0.0058
331.0;0.0052
331.5;0.0066
332.0;0.0070
332.5;0.0067
333.0;0.0064
333.5;0.0067
334.0;0.0087
334.5;0.0086
335.0;0.0078
335.5;0.0093
336.0;0.0095
336.5;0.0090
337.0;0.0097
337.5;0.0094
338.0;0.0104
338.5;0.0109
339.0;0.0119
339.5;0.0113
340.0;0.0097
340.5;0.0113
341.0;0.0119
341.5;0.0109
342.0;0.0120
342.5;0.0123
343.0;0.0115
343.5;0.0127
344.0;0.0127
344.5;0.0128
345.0;0.0132
345.5;0.0132
346.0;0.0142
346.5;0.0148
347.0;0.0153
347.5;0.0144
348.0;0.0159
348.5;0.0156
349.0;0.0163
349.5;0.0164
350.0;0.0182
350.5;0.0173
351.0;0.0182
351.5;0.0184
352.0;0.0187
352.5;0.0191
353.0;0.0200
353.5;0.0201
354.0;0.0205
354.5;0.0206
355.0;0.0201
355.5;0.0200
356.0;0.0199
356.5;0.0191
357.0;0.0192
357.5;0.0193
358.0;0.0186
358.5;0.0177
359.0;0.0180
359.5;0.0173
360.0;0.0166
360.5;0.0164
361.0;0.0157
361.5;0.0146
362.0;0.0147
362.5;0.0144
363.0;0.0139
363.5;0.0133
364.0;0.0122
364.5;0.0116
365.0;0.0119
365.5;0.0107
366.0;0.0106
366.5;0.0103
367.0;0.0094
367.5;0.0094
368.0;0.0081
368.5;0.0085
369.0;0.0074
369.5;0.0082
370.0;0.0064
370.5;0.0068
371.0;0.0052
371.5;0.0051
372.0;0.0057
372.5;0.0055
373.0;0.0053
373.5;0.0047
374.0;0.0047
374.5;0.0048
375.0;0.0040
375.5;0.0048
376.0;0.0046
376.5;0.0044
377.0;0.0050
377.5;0.0049
378.0;0.0039
378.5;0.0042
379.0;0.0040
379.5;0.0042
380.0;0.0044
380.5;0.0038
381.0;0.0043
381.5;0.0038
382.0;0.0042
382.5;0.0046
383.0;0.0035
383.5;0.0038
384.0;0.0037
384.5;0.0037
385.0;0.0047
385.5;0.0047
386.0;0.0038
386.5;0.0051
387.0;0.0047
387.5;0.0046
388.0;0.0046
388.5;0.0048
389.0;0.0051
389.5;0.0046
390.0;0.0054
390.5;0.0047
391.0;0.0052
391.5;0.0053
392.0;0.0054
392.5;0.0050
393.0;0.0049
393.5;0.0060
394.0;0.0056
394.5;0.0051
395.0;0.0056
395.5;0.0053
396.0;0.0051
396.5;0.0052
397.0;0.0055
397.5;0.0057
398.0;0.0054
398.5;0.0053
399.0;0.0051
399.5;0.0051
400.0;0.0048
400.5;0.0044
401.0;0.0050
401.5;0.0049
402.0;0.0046
402.5;0.0049
403.0;0.0052
403.5;0.0047
404.0;0.0048
404.5;0.0050
405.0;0.0046
405.5;0.0047
406.0;0.0046
406.5;0.0044
407.0;0.0046
407.5;0.0047
408.0;0.0047
408.5;0.0045
409.0;0.0047
409.5;0.0048
410.0;0.0044
410.5;0.0047
411.0;0.0044
411.5;0.0044
412.0;0.0048
412.5;0.0043
413.0;0.0044
413.5;0.0044
414.0;0.0043
414.5;0.0044
415.0;0.0041
415.5;0.0042
416.0;0.0042
416.5;0.0043
417.0;0.0044
417.5;0.0041
418.0;0.0045
418.5;0.0044
419.0;0.0040
419.5;0.0041
420.0;0.0038
420.5;0.0040
421.0;0.0040
421.5;0.0040
422.0;0.0037
422.5;0.0035
423.0;0.0034
423.5;0.0034
424.0;0.0032
424.5;0.0030
425.0;0.0031
425.5;0.0027
426.0;0.0028
426.5;0.0028
427.0;0.0026
427.5;0.0025
428.0;0.0026
428.5;0.0024
429.0;0.0023
429.5;0.0021
430.0;0.0021
430.5;0.0016
431.0;0.0020
431.5;0.0018
432.0;0.0016
432.5;0.0014
433.0;0.0012
433.5;0.0008
434.0;0.0013
434.5;0.0012
435.0;0.0012
435.5;0.0011
436.0;0.0012
436.5;0.0010
437.0;0.0006
437.5;0.0008
438.0;0.0008
438.5;0.0005
439.0;0.0009
439.5;0.0007
440.0;0.0008
440.5;0.0004
441.0;0.0005
441.5;0.0004
442.0;0.0007
442.5;0.0007
443.0;0.0005
443.5;0.0004
444.0;0.0006
444.5;0.0006
445.0;0.0006
445.5;0.0011
446.0;0.0009
446.5;0.0005
447.0;0.0008
447.5;0.0007
448.0;0.0007
448.5;0.0010
449.0;0.0009
449.5;0.0007
450.0;0.0013
450.5;0.0010
451.0;0.0012
451.5;0.0012
452.0;0.0014
452.5;0.0017
453.0;0.0013
453.5;0.0015
454.0;0.0016
454.5;0.0017
455.0;0.0020
455.5;0.0022
456.0;0.0021
456.5;0.0024
457.0;0.0024
457.5;0.0020
458.0;0.0026
458.5;0.0026
459.0;0.0027
459.5;0.0032
460.0;0.0033
460.5;0.0038
461.0;0.0036
461.5;0.0036
462.0;0.0041
462.5;0.0041
463.0;0.0042
463.5;0.0047
464.0;0.0051
464.5;0.0049
465.0;0.0050
465.5;0.0053
466.0;0.0055
466.5;0.0061
467.0;0.0062
467.5;0.0063
468.0;0.0070
468.5;0.0068
469.0;0.0070
469.5;0.0074
470.0;0.0078
470.5;0.0083
471.0;0.0084
471.5;0.0087
472.0;0.0089
472.5;0.0092
473.0;0.0094
473.5;0.0096
474.0;0.0100
474.5;0.0105
475.0;0.0106
475.5;0.0109
476.0;0.0113
476.5;0.0115
477.0;0.0119
477.5;0.0121
478.0;0.0124
478.5;0.0128
479.0;0.0131
479.5;0.0136
480.0;0.0138
480.5;0.0141
481.0;0.0145
481.5;0.0150
482.0;0.0153
482.5;0.0156
483.0;0.0163
483.5;0.0164
484.0;0.0170
484.5;0.0176
485.0;0.0182
485.5;0.0187
486.0;0.0192
486.5;0.0198
487.0;0.0206
487.5;0.0212
488.0;0.0218
488.5;0.0226
489.0;0.0234
489.5;0.0243
490.0;0.0251
490.5;0.0259
491.0;0.0268
491.5;0.0277
492.0;0.0285
492.5;0.0295
493.0;0.0306
493.5;0.0317
494.0;0.0327
494.5;0.0337
495.0;0.0349
495.5;0.0360
496.0;0.0372
496.5;0.0384
497.0;0.0396
497.5;0.0407
498.0;0.0420
498.5;0.0430
499.0;0.0443
499.5;0.0457
500.0;0.0468
500.5;0.0480
501.0;0.0493
501.5;0.0504
502.0;0.0514
502.5;0.0527
503.0;0.0538
503.5;0.0549
504.0;0.0559
504.5;0.0569
505.0;0.0580
505.5;0.0590
506.0;0.0600
506.5;0.0609
507.0;0.0618
507.5;0.0626
508.0;0.0634
508.5;0.0641
509.0;0.0649
509.5;0.0657
510.0;0.0664
510.5;0.0672
511.0;0.0677
511.5;0.0683
512.0;0.0689
512.5;0.0695
513.0;0.0701
513.5;0.0707
514.0;0.0712
514.5;0.0720
515.0;0.0725
515.5;0.0732
516.0;0.0738
516.5;0.0746
517.0;0.0753
517.5;0.0761
518.0;0.0771
518.5;0.0780
519.0;0.0790
519.5;0.0802
520.0;0.0813
520.5;0.0827
521.0;0.0840
521.5;0.0855
522.0;0.0870
522.5;0.0887
523.0;0.0906
523.5;0.0925
524.0;0.0946
524.5;0.0966
525.0;0.0989
525.5;0.1014
526.0;0.1039
526.5;0.1067
527.0;0.1094
527.5;0.1123
528.0;0.1152
528.5;0.1183
529.0;0.1214
529.5;0.1247
530.0;0.1281
530.5;0.1316
531.0;0.1352
531.5;0.1390
532.0;0.1428
532.5;0.1467
533.0;0.1506
533.5;0.1545
534.0;0.1585
534.5;0.1625
535.0;0.1665
535.5;0.1705
536.0;0.1744
536.5;0.1783
537.0;0.1821
537.5;0.1857
538.0;0.1893
538.5;0.1929
539.0;0.1962
539.5;0.1995
540.0;0.2026
540.5;0.2054
541.0;0.2080
541.5;0.2105
542.0;0.2126
542.5;0.2145
543.0;0.2162
543.5;0.2176
544.0;0.2187
544.5;0.2195
545.0;0.2201
545.5;0.2203
546.0;0.2202
546.5;0.2197
547.0;0.2190
547.5;0.2179
548.0;0.2165
548.5;0.2147
549.0;0.2126
549.5;0.2102
550.0;0.2076
550.5;0.2046
551.0;0.2013
551.5;0.1979
552.0;0.1941
552.5;0.1900
553.0;0.1859
553.5;0.1814
554.0;0.1767
554.5;0.1719
555.0;0.1669
555.5;0.1619
556.0;0.1568
556.5;0.1516
557.0;0.1464
557.5;0.1413
558.0;0.1361
558.5;0.1308
559.0;0.1254
559.5;0.1199
560.0;0.1146
560.5;0.1094
561.0;0.1040
561.5;0.0989
562.0;0.0939
562.5;0.0890
563.0;0.0842
563.5;0.0796
564.0;0.0752
564.5;0.0709
565.0;0.0667
565.5;0.0626
566.0;0.0588
566.5;0.0550
567.0;0.0516
567.5;0.0481
568.0;0.0449
568.5;0.0418
569.0;0.0389
569.5;0.0362
570.0;0.0337
570.5;0.0313
571.0;0.0291
571.5;0.0270
572.0;0.0249
572.5;0.0230
573.0;0.0212
573.5;0.0196
574.0;0.0181
574.5;0.0165
575.0;0.0151
575.5;0.0139
576.0;0.0127
576.5;0.0117
577.0;0.0106
577.5;0.0097
578.0;0.0088
578.5;0.0080
579.0;0.0072
579.5;0.0067
580.0;0.0060
580.5;0.0054
581.0;0.0049
581.5;0.0043
582.0;0.0040
582.5;0.0035
583.0;0.0031
583.5;0.0027
584.0;0.0025
584.5;0.0021
585.0;0.0019
585.5;0.0015
586.0;0.0014
586.5;0.0012
587.0;0.0010
587.5;0.0009
588.0;0.0006
588.5;0.0005
589.0;0.0003
589.5;0.0003
590.0;0.0001
590.5;0.0001
591.0;-0.0001
591.5;-0.0002
592.0;-0.0002
592.5;-0.0003
593.0;-0.0003
593.5;-0.0004
594.0;-0.0004
594.5;-0.0004
595.0;-0.0005
595.5;-0.0005
596.0;-0.0005
596.5;-0.0005
597.0;-0.0006
597.5;-0.0007
598.0;-0.0006
598.5;-0.0007
599.0;-0.0008
599.5;-0.0007
600.0;-0.0008
600.5;-0.0007
601.0;-0.0008
601.5;-0.0007
602.0;-0.0008
602.5;-0.0007
603.0;-0.0007
603.5;-0.0009
604.0;-0.0007
604.5;-0.0008
605.0;-0.0008
605.5;-0.0008
606.0;-0.0007
606.5;-0.0008
607.0;-0.0007
607.5;-0.0008
608.0;-0.0008
608.5;-0.0007
609.0;-0.0007
609.5;-0.0007
610.0;-0.0007
610.5;-0.0007
611.0;-0.0007
611.5;-0.0007
612.0;-0.0007
612.5;-0.0008
613.0;-0.0007
613.5;-0.0008
614.0;-0.0007
614.5;-0.0008
615.0;-0.0007
615.5;-0.0007
616.0;-0.0007
616.5;-0.0007
617.0;-0.0008
617.5;-0.0008
618.0;-0.0007
618.5;-0.0007
619.0;-0.0008
619.5;-0.0007
620.0;-0.0008
620.5;-0.0007
621.0;-0.0007
621.5;-0.0008
622.0;-0.0008
622.5;-0.0008
623.0;-0.0008
623.5;-0.0008
624.0;-0.0008
624.5;-0.0007
625.0;-0.0009
625.5;-0.0008
626.0;-0.0008
626.5;-0.0008
627.0;-0.0008
627.5;-0.0008
628.0;-0.0009
628.5;-0.0008
629.0;-0.0009
629.5;-0.0008
630.0;-0.0009
630.5;-0.0009
631.0;-0.0008
631.5;-0.0008
632.0;-0.0009
632.5;-0.0009
633.0;-0.0008
633.5;-0.0009
634.0;-0.0010
634.5;-0.0008
635.0;-0.0009
635.5;-0.0009
636.0;-0.0008
636.5;-0.0009
637.0;-0.0008
637.5;-0.0009
638.0;-0.0008
638.5;-0.0010
639.0;-0.0009
639.5;-0.0009
640.0;-0.0008
640.5;-0.0010
641.0;-0.0009
641.5;-0.0010
642.0;-0.0009
642.5;-0.0010
643.0;-0.0010
643.5;-0.0009
644.0;-0.0009
644.5;-0.0010
645.0;-0.0009
645.5;-0.0009
646.0;-0.0009
646.5;-0.0009
647.0;-0.0009
647.5;-0.0009
648.0;-0.0010
648.5;-0.0009
649.0;-0.0009
649.5;-0.0009
650.0;-0.0009
650.5;-0.0009
651.0;-0.0009
651.5;-0.0009
652.0;-0.0009
652.5;-0.0008
653.0;-0.0007
653.5;-0.0009
654.0;-0.0008
654.5;-0.0008
655.0;-0.0008
655.5;-0.0008
656.0;-0.0009
656.5;-0.0008
657.0;-0.0008
657.5;-0.0008
658.0;-0.0008
658.5;-0.0008
659.0;-0.0007
659.5;-0.0009
660.0;-0.0008
660.5;-0.0008
661.0;-0.0008
661.5;-0.0009
662.0;-0.0008
662.5;-0.0008
663.0;-0.0009
663.5;-0.0008
664.0;-0.0008
664.5;-0.0008
665.0;-0.0008
665.5;-0.0009
666.0;-0.0009
666.5;-0.0009
667.0;-0.0009
667.5;-0.0009
668.0;-0.0010
668.5;-0.0009
669.0;-0.0010
669.5;-0.0010
670.0;-0.0010
670.5;-0.0011
671.0;-0.0011
671.5;-0.0012
672.0;-0.0011
672.5;-0.0012
673.0;-0.0012
673.5;-0.0012
674.0;-0.0013
674.5;-0.0013
675.0;-0.0013
675.5;-0.0013
676.0;-0.0012
676.5;-0.0013
677.0;-0.0013
677.5;-0.0014
678.0;-0.0014
678.5;-0.0013
679.0;-0.0014
679.5;-0.0014
680.0;-0.0013
680.5;-0.0014
681.0;-0.0014
681.5;-0.0015
682.0;-0.0013
682.5;-0.0014
683.0;-0.0014
683.5;-0.0014
684.0;-0.0014
684.5;-0.0013
685.0;-0.0014
685.5;-0.0013
686.0;-0.0014
686.5;-0.0013
687.0;-0.0013
687.5;-0.0014
688.0;-0.0014
688.5;-0.0014
689.0;-0.0014
689.5;-0.0014
690.0;-0.0014
690.5;-0.0013
691.0;-0.0013
691.5;-0.0012
692.0;-0.0013
692.5;-0.0014
693.0;-0.0014
693.5;-0.0014
694.0;-0.0012
694.5;-0.0013
695.0;-0.0013
695.5;-0.0013
696.0;-0.0013
696.5;-0.0013
697.0;-0.0013
697.5;-0.0012
698.0;-0.0012
698.5;-0.0012
699.0;-0.0013
699.5;-0.0012
700.0;-0.0013
700.5;-0.0013
701.0;-0.0012
701.5;-0.0012
702.0;-0.0013
702.5;-0.0013
703.0;-0.0013
703.5;-0.0014
704.0;-0.0013
704.5;-0.0012
705.0;-0.0013
705.5;-0.0013
706.0;-0.0013
706.5;-0.0013
707.0;-0.0012
707.5;-0.0012
708.0;-0.0012
708.5;-0.0013
709.0;-0.0013
709.5;-0.0012
710.0;-0.0012
710.5;-0.0013
711.0;-0.0013
711.5;-0.0012
712.0;-0.0013
712.5;-0.0013
713.0;-0.0013
713.5;-0.0013
714.0;-0.0013
714.5;-0.0013
715.0;-0.0013
715.5;-0.0012
716.0;-0.0013
716.5;-0.0012
717.0;-0.0012
717.5;-0.0013
718.0;-0.0013
718.5;-0.0013
719.0;-0.0014
719.5;-0.0014
720.0;-0.0013
720.5;-0.0014
721.0;-0.0014
721.5;-0.0014
722.0;-0.0014
722.5;-0.0014
723.0;-0.0014
723.5;-0.0014
724.0;-0.0014
724.5;-0.0013
725.0;-0.0013
725.5;-0.0013
726.0;-0.0013
726.5;-0.0013
727.0;-0.0014
727.5;-0.0013
728.0;-0.0013
728.5;-0.0013
729.0;-0.0014
729.5;-0.0014
730.0;-0.0013
730.5;-0.0013
731.0;-0.0014
731.5;-0.0014
732.0;-0.0014
732.5;-0.0013
733.0;-0.0013
733.5;-0.0013
734.0;-0.0014
734.5;-0.0013
735.0;-0.0014
735.5;-0.0014
736.0;-0.0015
736.5;-0.0014
737.0;-0.0014
737.5;-0.0014
738.0;-0.0014
738.5;-0.0015
739.0;-0.0015
739.5;-0.0014
740.0;-0.0015
740.5;-0.0014
741.0;-0.0014
741.5;-0.0015
742.0;-0.0015
742.5;-0.0015
743.0;-0.0015
743.5;-0.0014
744.0;-0.0014
744.5;-0.0015
745.0;-0.0014
745.5;-0.0014
746.0;-0.0013
746.5;-0.0014
747.0;-0.0014
747.5;-0.0015
748.0;-0.0014
748.5;-0.0014
749.0;-0.0016
749.5;-0.0014
750.0;-0.0014
750.5;-0.0015
751.0;-0.0015
751.5;-0.0014
752.0;-0.0014
752.5;-0.0014
753.0;-0.0013
753.5;-0.0013
754.0;-0.0013
754.5;-0.0013
755.0;-0.0013
755.5;-0.0014
756.0;-0.0014
756.5;-0.0014
757.0;-0.0013
757.5;-0.0014
758.0;-0.0014
758.5;-0.0013
759.0;-0.0013
759.5;-0.0013
760.0;-0.0013
760.5;-0.0013
761.0;-0.0012
761.5;-0.0012
762.0;-0.0013
762.5;-0.0012
763.0;-0.0013
763.5;-0.0012
764.0;-0.0012
764.5;-0.0012
765.0;-0.0012
765.5;-0.0012
766.0;-0.0012
766.5;-0.0012
767.0;-0.0012
767.5;-0.0013
768.0;-0.0012
768.5;-0.0012
769.0;-0.0012
769.5;-0.0012
770.0;-0.0011
770.5;-0.0012
771.0;-0.0012
771.5;-0.0012
772.0;-0.0012
772.5;-0.0012
773.0;-0.0012
773.5;-0.0012
774.0;-0.0013
774.5;-0.0013
775.0;-0.0012
775.5;-0.0012
776.0;-0.0012
776.5;-0.0012
777.0;-0.0012
777.5;-0.0013
778.0;-0.0013
778.5;-0.0012
779.0;-0.0012
779.5;-0.0013
780.0;-0.0013
780.5;-0.0012
781.0;-0.0013
781.5;-0.0012
782.0;-0.0012
782.5;-0.0011
783.0;-0.0011
783.5;-0.0011
784.0;-0.0011
784.5;-0.0010
785.0;-0.0010
785.5;-0.0011
786.0;-0.0011
786.5;-0.0011
787.0;-0.0012
787.5;-0.0011
788.0;-0.0010
788.5;-0.0010
789.0;-0.0010
789.5;-0.0010
790.0;-0.0010
790.5;-0.0010
791.0;-0.0010
791.5;-0.0010
792.0;-0.0010
792.5;-0.0010
793.0;-0.0010
793.5;-0.0010
794.0;-0.0009
794.5;-0.0010
795.0;-0.0009
795.5;-0.0008
796.0;-0.0009
796.5;-0.0008
797.0;-0.0009
797.5;-0.0008
798.0;-0.0009
798.5;-0.0009
799.0;-0.0009
799.5;-0.0008
800.0;-0.0008
800.5;-0.0008
801.0;-0.0008
801.5;-0.0008
802.0;-0.0008
802.5;-0.0007
803.0;-0.0008
803.5;-0.0008
804.0;-0.0007
804.5;-0.0008
805.0;-0.0008
805.5;-0.0007
806.0;-0.0008
806.5;-0.0009
807.0;-0.0008
807.5;-0.0006
808.0;-0.0008
808.5;-0.0008
809.0;-0.0008
809.5;-0.0008
810.0;-0.0008
810.5;-0.0007
811.0;-0.0007
811.5;-0.0008
812.0;-0.0008
812.5;-0.0009
813.0;-0.0008
813.5;-0.0008
814.0;-0.0008
814.5;-0.0006
815.0;-0.0007
815.5;-0.0006
816.0;-0.0007
816.5;-0.0008
817.0;-0.0007
817.5;-0.0007
818.0;-0.0008
818.5;-0.0007
819.0;-0.0007
819.5;-0.0007
820.0;-0.0008
820.5;-0.0008
821.0;-0.0008
821.5;-0.0007
822.0;-0.0008
822.5;-0.0008
823.0;-0.0009
823.5;-0.0009
824.0;-0.0009
824.5;-0.0009
825.0;-0.0009
825.5;-0.0009
826.0;-0.0009
826.5;-0.0009
827.0;-0.0009
827.5;-0.0010
828.0;-0.0010
828.5;-0.0010
829.0;-0.0010
829.5;-0.0009
830.0;-0.0010
830.5;-0.0009
831.0;-0.0009
831.5;-0.0009
832.0;-0.0009
832.5;-0.0009
833.0;-0.0009
833.5;-0.0008
834.0;-0.0009
834.5;-0.0008
835.0;-0.0008
835.5;-0.0007
836.0;-0.0008
836.5;-0.0007
837.0;-0.0007
837.5;-0.0007
838.0;-0.0006
838.5;-0.0006
839.0;-0.0006
839.5;-0.0006
840.0;-0.0006
840.5;-0.0005
841.0;-0.0006
841.5;-0.0006
842.0;-0.0006
842.5;-0.0006
843.0;-0.0006
843.5;-0.0005
844.0;-0.0006
844.5;-0.0006
845.0;-0.0006
845.5;-0.0007
846.0;-0.0006
846.5;-0.0007
847.0;-0.0006
847.5;-0.0007
848.0;-0.0006
848.5;-0.0007
849.0;-0.0006
849.5;-0.0006
850.0;-0.0006
850.5;-0.0007
851.0;-0.0006
851.5;-0.0007
852.0;-0.0007
852.5;-0.0007
853.0;-0.0007
853.5;-0.0006
854.0;-0.0007
854.5;-0.0006
855.0;-0.0007
855.5;-0.0007
856.0;-0.0007
856.5;-0.0007
857.0;-0.0007
857.5;-0.0007
858.0;-0.0006
858.5;-0.0006
859.0;-0.0007
859.5;-0.0007
860.0;-0.0007
860.5;-0.0007
861.0;-0.0007
861.5;-0.0006
862.0;-0.0007
862.5;-0.0008
863.0;-0.0007
863.5;-0.0008
864.0;-0.0007
864.5;-0.0008
865.0;-0.0007
865.5;-0.0007
866.0;-0.0008
866.5;-0.0008
867.0;-0.0008
867.5;-0.0007
868.0;-0.0008
868.5;-0.0007
869.0;-0.0007
869.5;-0.0008
870.0;-0.0007
870.5;-0.0007
871.0;-0.0008
871.5;-0.0008
872.0;-0.0008
872.5;-0.0009
873.0;-0.0008
873.5;-0.0008
874.0;-0.0008
874.5;-0.0008
875.0;-0.0008
875.5;-0.0009
876.0;-0.0008
876.5;-0.0008
877.0;-0.0008
877.5;-0.0008
878.0;-0.0009
878.5;-0.0009
879.0;-0.0008
879.5;-0.0009
880.0;-0.0009
880.5;-0.0008
881.0;-0.0008
881.5;-0.0008
882.0;-0.0009
882.5;-0.0008
883.0;-0.0008
883.5;-0.0009
884.0;-0.0009
884.5;-0.0009
885.0;-0.0008
885.5;-0.0009
886.0;-0.0008
886.5;-0.0008
887.0;-0.0009
887.5;-0.0007
888.0;-0.0008
888.5;-0.0008
889.0;-0.0008
889.5;-0.0008
890.0;-0.0008
890.5;-0.0008
891.0;-0.0007
891.5;-0.0007
892.0;-0.0007
892.5;-0.0006
893.0;-0.0006
893.5;-0.0007
894.0;-0.0007
894.5;-0.0007
895.0;-0.0007
895.5;-0.0006
896.0;-0.0006
896.5;-0.0006
897.0;-0.0007
897.5;-0.0006
898.0;-0.0007
898.5;-0.0007
899.0;-0.0006
899.5;-0.0007
900.0;-0.0007
900.5;-0.0007
901.0;-0.0007
901.5;-0.0008
902.0;-0.0007
902.5;-0.0007
903.0;-0.0007
903.5;-0.0008
904.0;-0.0007
904.5;-0.0007
905.0;-0.0007
905.5;-0.0007
906.0;-0.0007
906.5;-0.0007
907.0;-0.0008
907.5;-0.0007
908.0;-0.0007
908.5;-0.0007
909.0;-0.0008
909.5;-0.0007
910.0;-0.0008
910.5;-0.0008
911.0;-0.0008
911.5;-0.0007
912.0;-0.0008
912.5;-0.0007
913.0;-0.0008
913.5;-0.0008
914.0;-0.0008
914.5;-0.0008
915.0;-0.0008
915.5;-0.0008
916.0;-0.0008
916.5;-0.0008
917.0;-0.0008
917.5;-0.0008
918.0;-0.0008
918.5;-0.0008
919.0;-0.0007
919.5;-0.0007
920.0;-0.0008
920.5;-0.0007
921.0;-0.0008
921.5;-0.0007
922.0;-0.0007
922.5;-0.0007
923.0;-0.0007
923.5;-0.0007
924.0;-0.0008
924.5;-0.0008
925.0;-0.0007
925.5;-0.0007
926.0;-0.0006
926.5;-0.0008
927.0;-0.0008
927.5;-0.0007
928.0;-0.0007
928.5;-0.0007
929.0;-0.0007
929.5;-0.0007
930.0;-0.0007
930.5;-0.0007
931.0;-0.0007
931.5;-0.0006
932.0;-0.0006
932.5;-0.0007
933.0;-0.0006
933.5;-0.0007
934.0;-0.0007
934.5;-0.0007
935.0;-0.0007
935.5;-0.0007
936.0;-0.0006
936.5;-0.0006
937.0;-0.0006
937.5;-0.0006
938.0;-0.0005
938.5;-0.0006
939.0;-0.0006
939.5;-0.0006
940.0;-0.0005
940.5;-0.0005
941.0;-0.0004
941.5;-0.0005
942.0;-0.0005
942.5;-0.0005
943.0;-0.0005
943.5;-0.0005
944.0;-0.0005
944.5;-0.0004
945.0;-0.0004
945.5;-0.0005
946.0;-0.0004
946.5;-0.0004
947.0;-0.0004
947.5;-0.0003
948.0;-0.0003
948.5;-0.0003
949.0;-0.0003
949.5;-0.0002
950.0;-0.0002
950.5;-0.0003
951.0;-0.0002
951.5;-0.0002
952.0;-0.0001
952.5;-0.0001
953.0;0.0000
953.5;0.0000
954.0;0.0000
954.5;0.0001
955.0;0.0001
955.5;0.0002
956.0;0.0002
956.5;0.0002
957.0;0.0002
957.5;0.0003
958.0;0.0003
958.5;0.0003
959.0;0.0004
959.5;0.0005
960.0;0.0004
960.5;0.0004
961.0;0.0004
961.5;0.0005
962.0;0.0005
962.5;0.0005
963.0;0.0006
963.5;0.0006
964.0;0.0006
964.5;0.0007
965.0;0.0006
965.5;0.0006
966.0;0.0007
966.5;0.0007
967.0;0.0007
967.5;0.0007
968.0;0.0008
968.5;0.0008
969.0;0.0008
969.5;0.0009
970.0;0.0009
970.5;0.0009
971.0;0.0009
971.5;0.0009
972.0;0.0010
972.5;0.0009
973.0;0.0010
973.5;0.0010
974.0;0.0010
974.5;0.0011
975.0;0.0011
975.5;0.0011
976.0;0.0011
976.5;0.0012
977.0;0.0013
977.5;0.0012
978.0;0.0013
978.5;0.0013
979.0;0.0013
979.5;0.0014
980.0;0.0014
980.5;0.0015
981.0;0.0015
981.5;0.0016
982.0;0.0016
982.5;0.0016
983.0;0.0017
983.5;0.0016
984.0;0.0017
984.5;0.0018
985.0;0.0018
985.5;0.0018
986.0;0.0018
986.5;0.0018
987.0;0.0019
987.5;0.0019
988.0;0.0019
988.5;0.0019
989.0;0.0020
989.5;0.0020
990.0;0.0021
990.5;0.0022
991.0;0.0022
991.5;0.0022
992.0;0.0022
992.5;0.0022
993.0;0.0023
993.5;0.0023
994.0;0.0025
994.5;0.0026
995.0;0.0025
995.5;0.0025
996.0;0.0027
996.5;0.0027
997.0;0.0027
997.5;0.0027
998.0;0.0028
998.5;0.0028
999.0;0.0029
999.5;0.0029
1000.0;0.0030
1000.5;0.0030
1001.0;0.0030
1001.5;0.0031
1002.0;0.0031
1002.5;0.0033
1003.0;0.0033
1003.5;0.0033
1004.0;0.0033
1004.5;0.0035
1005.0;0.0035
1005.5;0.0036
1006.0;0.0037
1006.5;0.0037
1007.0;0.0038
1007.5;0.0038
1008.0;0.0039
1008.5;0.0040
1009.0;0.0041
1009.5;0.0041
1010.0;0.0041
1010.5;0.0043
1011.0;0.0043
1011.5;0.0044
1012.0;0.0045
1012.5;0.0046
1013.0;0.0046
1013.5;0.0048
1014.0;0.0048
1014.5;0.0049
1015.0;0.0050
1015.5;0.0051
1016.0;0.0052
1016.5;0.0053
1017.0;0.0054
1017.5;0.0054
1018.0;0.0055
1018.5;0.0056
1019.0;0.0057
1019.5;0.0058
1020.0;0.0058
1020.5;0.0060
1021.0;0.0061
1021.5;0.0062
1022.0;0.0064
1022.5;0.0065
1023.0;0.0065
1023.5;0.0066
1024.0;0.0067
1024.5;0.0069
1025.0;0.0070
1025.5;0.0071
1026.0;0.0071
1026.5;0.0073
1027.0;0.0073
1027.5;0.0074
1028.0;0.0076
1028.5;0.0077
1029.0;0.0078
1029.5;0.0079
1030.0;0.0081
1030.5;0.0082
1031.0;0.0083
1031.5;0.0084
1032.0;0.0086
1032.5;0.0087
1033.0;0.0088
1033.5;0.0088
1034.0;0.0090
1034.5;0.0092
1035.0;0.0093
1035.5;0.0095
1036.0;0.0096
1036.5;0.0097
1037.0;0.0099
1037.5;0.0102
1038.0;0.0102
1038.5;0.0103
1039.0;0.0106
1039.5;0.0108
1040.0;0.0109
1040.5;0.0108
1041.0;0.0110
1041.5;0.0112
1042.0;0.0113
1042.5;0.0114
1043.0;0.0116
1043.5;0.0118
1044.0;0.0119
1044.5;0.0121
1045.0;0.0122
1045.5;0.0124
1046.0;0.0125
1046.5;0.0126
1047.0;0.0128
1047.5;0.0129
1048.0;0.0130
1048.5;0.0132
1049.0;0.0133
1049.5;0.0135
1050.0;0.0136
1050.5;0.0138
1051.0;0.0140
1051.5;0.0141
1052.0;0.0143
1052.5;0.0144
1053.0;0.0146
1053.5;0.0147
1054.0;0.0148
1054.5;0.0150
1055.0;0.0152
1055.5;0.0156
1056.0;0.0157
1056.5;0.0160
1057.0;0.0162
1057.5;0.0167
1058.0;0.0170
1058.5;0.0174
1059.0;0.0178
1059.5;0.0180
1060.0;0.0182
1060.5;0.0184
1061.0;0.0185
1061.5;0.0185
1062.0;0.0183
1062.5;0.0180
1063.0;0.0178
1063.5;0.0175
1064.0;0.0173
1064.5;0.0170
1065.0;0.0168
1065.5;0.0166
1066.0;0.0166
1066.5;0.0167
1067.0;0.0165
1067.5;0.0165
1068.0;0.0165
1068.5;0.0165
1069.0;0.0167
1069.5;0.0165
1070.0;0.0166
1070.5;0.0166
1071.0;0.0167
1071.5;0.0167
1072.0;0.0168
1072.5;0.0169
1073.0;0.0172
1073.5;0.0173
1074.0;0.0172
1074.5;0.0173
1075.0;0.0172
1075.5;0.0173
1076.0;0.0178
1076.5;0.0176
1077.0;0.0177
1077.5;0.0176
1078.0;0.0177
1078.5;0.0178
1079.0;0.0179
1079.5;0.0179
1080.0;0.0179
1080.5;0.0180
1081.0;0.0181
1081.5;0.0181
1082.0;0.0180
1082.5;0.0184
1083.0;0.0184
1083.5;0.0185
1084.0;0.0185
1084.5;0.0185
1085.0;0.0184
1085.5;0.0187
1086.0;0.0185
1086.5;0.0186
1087.0;0.0187
1087.5;0.0188
1088.0;0.0191
1088.5;0.0191
1089.0;0.0191
1089.5;0.0190
1090.0;0.0193
1090.5;0.0194
1091.0;0.0197
1091.5;0.0192
1092.0;0.0194
1092.5;0.0196
1093.0;0.0197
1093.5;0.0196
1094.0;0.0198
1094.5;0.0196
1095.0;0.0201
1095.5;0.0202
1096.0;0.0201
1096.5;0.0200
1097.0;0.0204
1097.5;0.0205
1098.0;0.0202
1098.5;0.0202
1099.0;0.0203
1099.5;0.0204
1100.0;0.0207
