[nm];[A];
;Sample 1;
190.0;0.2078
190.5;0.2809
191.0;-0.2327
191.5;0.2101
192.0;0.1272
192.5;0.2279
193.0;0.2428
193.5;0.1105
194.0;0.1682
194.5;0.1686
195.0;-0.0562
195.5;0.0846
196.0;0.1643
196.5;0.0100
197.0;0.1378
197.5;0.1276
198.0;0.1151
198.5;0.1702
199.0;0.1937
199.5;0.2989
200.0;0.3260
200.5;0.3680
201.0;0.4001
201.5;0.4177
202.0;0.4320
202.5;0.4350
203.0;0.4429
203.5;0.4435
204.0;0.4426
204.5;0.4423
205.0;0.4408
205.5;0.4375
206.0;0.4342
206.5;0.4302
207.0;0.4265
207.5;0.4214
208.0;0.4159
208.5;0.4103
209.0;0.4044
209.5;0.3994
210.0;0.3944
210.5;0.3899
211.0;0.3856
211.5;0.3816
212.0;0.3777
212.5;0.3745
213.0;0.3717
213.5;0.3690
214.0;0.3670
214.5;0.3649
215.0;0.3630
215.5;0.3623
216.0;0.3610
216.5;0.3599
217.0;0.3589
217.5;0.3582
218.0;0.3578
218.5;0.3574
219.0;0.3572
219.5;0.3573
220.0;0.3573
220.5;0.3576
221.0;0.3575
221.5;0.3572
222.0;0.3570
222.5;0.3567
223.0;0.3555
223.5;0.3547
224.0;0.3537
224.5;0.3518
225.0;0.3499
225.5;0.3469
226.0;0.3433
226.5;0.3396
227.0;0.3352
227.5;0.3304
228.0;0.3252
228.5;0.3203
229.0;0.3151
229.5;0.3104
230.0;0.3058
230.5;0.3012
231.0;0.2966
231.5;0.2922
232.0;0.2875
232.5;0.2835
233.0;0.2796
233.5;0.2765
234.0;0.2744
234.5;0.2725
235.0;0.2720
235.5;0.2715
236.0;0.2720
236.5;0.2720
237.0;0.2725
237.5;0.2728
238.0;0.2720
238.5;0.2706
239.0;0.2677
239.5;0.2635
240.0;0.2587
240.5;0.2533
241.0;0.2475
241.5;0.2416
242.0;0.2368
242.5;0.2326
243.0;0.2291
243.5;0.2270
244.0;0.2258
244.5;0.2251
245.0;0.2260
245.5;0.2281
246.0;0.2305
246.5;0.2344
247.0;0.2390
247.5;0.2442
248.0;0.2499
248.5;0.2565
249.0;0.2636
249.5;0.2699
250.0;0.2779
250.5;0.2840
251.0;0.2908
251.5;0.2966
252.0;0.3018
252.5;0.3066
253.0;0.3110
253.5;0.3143
254.0;0.3179
254.5;0.3208
255.0;0.3236
255.5;0.3260
256.0;0.3285
256.5;0.3308
257.0;0.3327
257.5;0.3352
258.0;0.3360
258.5;0.3373
259.0;0.3366
259.5;0.3359
260.0;0.3327
260.5;0.3293
261.0;0.3239
261.5;0.3167
262.0;0.3089
262.5;0.2994
263.0;0.2884
263.5;0.2772
264.0;0.2658
264.5;0.2542
265.0;0.2418
265.5;0.2304
266.0;0.2191
266.5;0.2090
267.0;0.1989
267.5;0.1899
268.0;0.1825
268.5;0.1757
269.0;0.1693
269.5;0.1640
270.0;0.1588
270.5;0.1552
271.0;0.1522
271.5;0.1497
272.0;0.1478
272.5;0.1459
273.0;0.1447
273.5;0.1436
274.0;0.1427
274.5;0.1424
275.0;0.1421
275.5;0.1416
276.0;0.1419
276.5;0.1416
277.0;0.1422
277.5;0.1421
278.0;0.1425
278.5;0.1428
279.0;0.1432
279.5;0.1431
280.0;0.1432
280.5;0.1432
281.0;0.1433
281.5;0.1428
282.0;0.1425
282.5;0.1420
283.0;0.1428
283.5;0.1428
284.0;0.1423
284.5;0.1421
285.0;0.1415
285.5;0.1411
286.0;0.1402
286.5;0.1401
287.0;0.1387
287.5;0.1388
288.0;0.1380
288.5;0.1372
289.0;0.1359
289.5;0.1364
290.0;0.1353
290.5;0.1349
291.0;0.1348
291.5;0.1343
292.0;0.1356
292.5;0.1337
293.0;0.1347
293.5;0.1355
294.0;0.1332
294.5;0.1341
295.0;0.1348
295.5;0.1358
296.0;0.1358
296.5;0.1371
297.0;0.1373
297.5;0.1369
298.0;0.1380
298.5;0.1373
299.0;0.1392
299.5;0.1396
300.0;0.1394
300.5;0.1399
301.0;0.1410
301.5;0.1422
302.0;0.1428
302.5;0.1432
303.0;0.1439
303.5;0.1447
304.0;0.1453
304.5;0.1466
305.0;0.1473
305.5;0.1474
306.0;0.1466
306.5;0.1458
307.0;0.1440
307.5;0.1420
308.0;0.1404
308.5;0.1373
309.0;0.1345
309.5;0.1285
310.0;0.1255
310.5;0.1195
311.0;0.1154
311.5;0.1087
312.0;0.1042
312.5;0.0973
313.0;0.0897
313.5;0.0846
314.0;0.0781
314.5;0.0716
315.0;0.0657
315.5;0.0596
316.0;0.0548
316.5;0.0481
317.0;0.0442
317.5;0.0385
318.0;0.0345
318.5;0.0307
319.0;0.0277
319.5;0.0237
320.0;0.0212
320.5;0.0170
321.0;0.0154
321.5;0.0106
322.0;0.0094
322.5;0.0090
323.0;0.0047
323.5;0.0059
324.0;0.0039
324.5;0.0016
325.0;0.0026
325.5;0.0020
326.0;-0.0008
326.5;-0.0014
327.0;0.0004
327.5;0.0006
328.0;-0.0007
328.5;0.0002
329.0;0.0002
329.5;0.0017
330.0;0.0030
330.5;0.0034
331.0;0.0039
331.5;0.0048
332.0;0.0069
332.5;0.0090
333.0;0.0093
333.5;0.0114
334.0;0.0140
334.5;0.0143
335.0;0.0171
335.5;0.0194
336.0;0.0205
336.5;0.0223
337.0;0.0240
337.5;0.0248
338.0;0.0269
338.5;0.0283
339.0;0.0291
339.5;0.0304
340.0;0.0324
340.5;0.0322
341.0;0.0330
341.5;0.0339
342.0;0.0352
342.5;0.0361
343.0;0.0377
343.5;0.0390
344.0;0.0403
344.5;0.0412
345.0;0.0435
345.5;0.0451
346.0;0.0466
346.5;0.0488
347.0;0.0510
347.5;0.0538
348.0;0.0563
348.5;0.0595
349.0;0.0623
349.5;0.0646
350.0;0.0670
350.5;0.0701
351.0;0.0724
351.5;0.0743
352.0;0.0771
352.5;0.0795
353.0;0.0807
353.5;0.0816
354.0;0.0825
354.5;0.0823
355.0;0.0831
355.5;0.0822
356.0;0.0816
356.5;0.0804
357.0;0.0786
357.5;0.0760
358.0;0.0744
358.5;0.0715
359.0;0.0693
359.5;0.0662
360.0;0.0632
360.5;0.0604
361.0;0.0573
361.5;0.0535
362.0;0.0511
362.5;0.0469
363.0;0.0441
363.5;0.0408
364.0;0.0375
364.5;0.0355
365.0;0.0316
365.5;0.0289
366.0;0.0262
366.5;0.0238
367.0;0.0217
367.5;0.0187
368.0;0.0163
368.5;0.0153
369.0;0.0130
369.5;0.0110
370.0;0.0087
370.5;0.0078
371.0;0.0066
371.5;0.0048
372.0;0.0033
372.5;0.0025
373.0;0.0019
373.5;0.0002
374.0;0.0004
374.5;-0.0008
375.0;-0.0016
375.5;-0.0021
376.0;-0.0021
376.5;-0.0023
377.0;-0.0026
377.5;-0.0032
378.0;-0.0034
378.5;-0.0023
379.0;-0.0032
379.5;-0.0032
380.0;-0.0033
380.5;-0.0037
381.0;-0.0032
381.5;-0.0024
382.0;-0.0024
382.5;-0.0028
383.0;-0.0023
383.5;-0.0024
384.0;-0.0018
384.5;-0.0010
385.0;-0.0009
385.5;-0.0003
386.0;-0.0007
386.5;0.0004
387.0;0.0005
387.5;0.0005
388.0;0.0012
388.5;0.0014
389.0;0.0018
389.5;0.0024
390.0;0.0026
390.5;0.0027
391.0;0.0028
391.5;0.0035
392.0;0.0032
392.5;0.0041
393.0;0.0045
393.5;0.0041
394.0;0.0038
394.5;0.0041
395.0;0.0048
395.5;0.0047
396.0;0.0049
396.5;0.0043
397.0;0.0041
397.5;0.0043
398.0;0.0043
398.5;0.0043
399.0;0.0040
399.5;0.0036
400.0;0.0031
400.5;0.0029
401.0;0.0030
401.5;0.0021
402.0;0.0019
402.5;0.0015
403.0;0.0013
403.5;0.0011
404.0;0.0008
404.5;0.0004
405.0;-0.0001
405.5;-0.0003
406.0;-0.0007
406.5;-0.0012
407.0;-0.0019
407.5;-0.0025
408.0;-0.0025
408.5;-0.0037
409.0;-0.0043
409.5;-0.0044
410.0;-0.0052
410.5;-0.0055
411.0;-0.0056
411.5;-0.0062
412.0;-0.0065
412.5;-0.0064
413.0;-0.0067
413.5;-0.0069
414.0;-0.0067
414.5;-0.0065
415.0;-0.0064
415.5;-0.0060
416.0;-0.0061
416.5;-0.0057
417.0;-0.0056
417.5;-0.0050
418.0;-0.0052
418.5;-0.0053
419.0;-0.0052
419.5;-0.0051
420.0;-0.0054
420.5;-0.0053
421.0;-0.0058
421.5;-0.0059
422.0;-0.0060
422.5;-0.0061
423.0;-0.0064
423.5;-0.0067
424.0;-0.0070
424.5;-0.0074
425.0;-0.0080
425.5;-0.0081
426.0;-0.0087
426.5;-0.0093
427.0;-0.0098
427.5;-0.0104
428.0;-0.0106
428.5;-0.0112
429.0;-0.0120
429.5;-0.0123
430.0;-0.0131
430.5;-0.0136
431.0;-0.0139
431.5;-0.0144
432.0;-0.0149
432.5;-0.0156
433.0;-0.0162
433.5;-0.0168
434.0;-0.0169
434.5;-0.0175
435.0;-0.0178
435.5;-0.0180
436.0;-0.0186
436.5;-0.0186
437.0;-0.0194
437.5;-0.0195
438.0;-0.0195
438.5;-0.0200
439.0;-0.0202
439.5;-0.0202
440.0;-0.0203
440.5;-0.0205
441.0;-0.0206
441.5;-0.0203
442.0;-0.0206
442.5;-0.0202
443.0;-0.0204
443.5;-0.0204
444.0;-0.0205
444.5;-0.0201
445.0;-0.0200
445.5;-0.0202
446.0;-0.0200
446.5;-0.0197
447.0;-0.0195
447.5;-0.0194
448.0;-0.0190
448.5;-0.0187
449.0;-0.0184
449.5;-0.0180
450.0;-0.0177
450.5;-0.0173
451.0;-0.0170
451.5;-0.0165
452.0;-0.0161
452.5;-0.0156
453.0;-0.0151
453.5;-0.0147
454.0;-0.0139
454.5;-0.0134
455.0;-0.0130
455.5;-0.0121
456.0;-0.0114
456.5;-0.0108
457.0;-0.0102
457.5;-0.0095
458.0;-0.0082
458.5;-0.0077
459.0;-0.0068
459.5;-0.0059
460.0;-0.0048
460.5;-0.0042
461.0;-0.0032
461.5;-0.0017
462.0;-0.0006
462.5;0.0005
463.0;0.0017
463.5;0.0023
464.0;0.0039
464.5;0.0051
465.0;0.0066
465.5;0.0076
466.0;0.0092
466.5;0.0104
467.0;0.0119
467.5;0.0128
468.0;0.0144
468.5;0.0158
469.0;0.0174
469.5;0.0187
470.0;0.0210
470.5;0.0227
471.0;0.0244
471.5;0.0259
472.0;0.0273
472.5;0.0290
473.0;0.0304
473.5;0.0318
474.0;0.0335
474.5;0.0352
475.0;0.0368
475.5;0.0382
476.0;0.0401
476.5;0.0418
477.0;0.0437
477.5;0.0454
478.0;0.0475
478.5;0.0491
479.0;0.0510
479.5;0.0531
480.0;0.0551
480.5;0.0571
481.0;0.0595
481.5;0.0616
482.0;0.0639
482.5;0.0664
483.0;0.0691
483.5;0.0717
484.0;0.0746
484.5;0.0775
485.0;0.0806
485.5;0.0838
486.0;0.0871
486.5;0.0908
487.0;0.0945
487.5;0.0982
488.0;0.1021
488.5;0.1064
489.0;0.1108
489.5;0.1154
490.0;0.1201
490.5;0.1252
491.0;0.1304
491.5;0.1357
492.0;0.1413
492.5;0.1470
493.0;0.1529
493.5;0.1589
494.0;0.1649
494.5;0.1712
495.0;0.1777
495.5;0.1841
496.0;0.1908
496.5;0.1974
497.0;0.2042
497.5;0.2113
498.0;0.2181
498.5;0.2253
499.0;0.2322
499.5;0.2392
500.0;0.2461
500.5;0.2530
501.0;0.2596
501.5;0.2663
502.0;0.2730
502.5;0.2796
503.0;0.2862
503.5;0.2925
504.0;0.2988
504.5;0.3048
505.0;0.3108
505.5;0.3164
506.0;0.3219
506.5;0.3271
507.0;0.3321
507.5;0.3368
508.0;0.3414
508.5;0.3457
509.0;0.3498
509.5;0.3539
510.0;0.3577
510.5;0.3614
511.0;0.3651
511.5;0.3687
512.0;0.3722
512.5;0.3758
513.0;0.3792
513.5;0.3827
514.0;0.3863
514.5;0.3898
515.0;0.3935
515.5;0.3973
516.0;0.4014
516.5;0.4057
517.0;0.4102
517.5;0.4153
518.0;0.4206
518.5;0.4264
519.0;0.4324
519.5;0.4391
520.0;0.4461
520.5;0.4536
521.0;0.4617
521.5;0.4704
522.0;0.4795
522.5;0.4893
523.0;0.4996
523.5;0.5107
524.0;0.5223
524.5;0.5348
525.0;0.5479
525.5;0.5618
526.0;0.5765
526.5;0.5919
527.0;0.6076
527.5;0.6242
528.0;0.6410
528.5;0.6585
529.0;0.6766
529.5;0.6951
530.0;0.7143
530.5;0.7343
531.0;0.7548
531.5;0.7761
532.0;0.7976
532.5;0.8196
533.0;0.8420
533.5;0.8644
534.0;0.8869
534.5;0.9094
535.0;0.9318
535.5;0.9538
536.0;0.9757
536.5;0.9972
537.0;1.0182
537.5;1.0389
538.0;1.0590
538.5;1.0784
539.0;1.0971
539.5;1.1150
540.0;1.1321
540.5;1.1480
541.0;1.1624
541.5;1.1755
542.0;1.1871
542.5;1.1975
543.0;1.2063
543.5;1.2137
544.0;1.2197
544.5;1.2242
545.0;1.2269
545.5;1.2279
546.0;1.2272
546.5;1.2249
547.0;1.2203
547.5;1.2140
548.0;1.2061
548.5;1.1962
549.0;1.1846
549.5;1.1713
550.0;1.1566
550.5;1.1400
551.0;1.1218
551.5;1.1022
552.0;1.0813
552.5;1.0586
553.0;1.0347
553.5;1.0098
554.0;0.9833
554.5;0.9564
555.0;0.9287
555.5;0.9002
556.0;0.8715
556.5;0.8425
557.0;0.8133
557.5;0.7839
558.0;0.7540
558.5;0.7240
559.0;0.6935
559.5;0.6627
560.0;0.6322
560.5;0.6020
561.0;0.5720
561.5;0.5427
562.0;0.5142
562.5;0.4860
563.0;0.4590
563.5;0.4325
564.0;0.4071
564.5;0.3824
565.0;0.3585
565.5;0.3356
566.0;0.3135
566.5;0.2921
567.0;0.2718
567.5;0.2522
568.0;0.2336
568.5;0.2160
569.0;0.1996
569.5;0.1840
570.0;0.1695
570.5;0.1558
571.0;0.1430
571.5;0.1306
572.0;0.1191
572.5;0.1082
573.0;0.0978
573.5;0.0879
574.0;0.0787
574.5;0.0702
575.0;0.0623
575.5;0.0549
576.0;0.0480
576.5;0.0417
577.0;0.0359
577.5;0.0304
578.0;0.0253
578.5;0.0207
579.0;0.0165
579.5;0.0126
580.0;0.0089
580.5;0.0056
581.0;0.0025
581.5;-0.0004
582.0;-0.0030
582.5;-0.0054
583.0;-0.0075
583.5;-0.0095
584.0;-0.0114
584.5;-0.0130
585.0;-0.0146
585.5;-0.0160
586.0;-0.0173
586.5;-0.0184
587.0;-0.0197
587.5;-0.0207
588.0;-0.0216
588.5;-0.0225
589.0;-0.0232
589.5;-0.0239
590.0;-0.0246
590.5;-0.0251
591.0;-0.0257
591.5;-0.0263
592.0;-0.0266
592.5;-0.0271
593.0;-0.0275
593.5;-0.0278
594.0;-0.0281
594.5;-0.0284
595.0;-0.0287
595.5;-0.0288
596.0;-0.0292
596.5;-0.0293
597.0;-0.0295
597.5;-0.0297
598.0;-0.0298
598.5;-0.0300
599.0;-0.0301
599.5;-0.0302
600.0;-0.0303
600.5;-0.0304
601.0;-0.0305
601.5;-0.0306
602.0;-0.0306
602.5;-0.0307
603.0;-0.0308
603.5;-0.0309
604.0;-0.0309
604.5;-0.0309
605.0;-0.0310
605.5;-0.0310
606.0;-0.0311
606.5;-0.0311
607.0;-0.0311
607.5;-0.0312
608.0;-0.0312
608.5;-0.0313
609.0;-0.0312
609.5;-0.0312
610.0;-0.0314
610.5;-0.0313
611.0;-0.0314
611.5;-0.0314
612.0;-0.0314
612.5;-0.0314
613.0;-0.0314
613.5;-0.0315
614.0;-0.0315
614.5;-0.0315
615.0;-0.0314
615.5;-0.0315
616.0;-0.0316
616.5;-0.0315
617.0;-0.0315
617.5;-0.0316
618.0;-0.0316
618.5;-0.0316
619.0;-0.0316
619.5;-0.0316
620.0;-0.0316
620.5;-0.0317
621.0;-0.0317
621.5;-0.0317
622.0;-0.0317
622.5;-0.0317
623.0;-0.0317
623.5;-0.0317
624.0;-0.0318
624.5;-0.0319
625.0;-0.0319
625.5;-0.0319
626.0;-0.0319
626.5;-0.0319
627.0;-0.0319
627.5;-0.0319
628.0;-0.0320
628.5;-0.0319
629.0;-0.0320
629.5;-0.0320
630.0;-0.0321
630.5;-0.0320
631.0;-0.0320
631.5;-0.0321
632.0;-0.0320
632.5;-0.0321
633.0;-0.0320
633.5;-0.0320
634.0;-0.0321
634.5;-0.0322
635.0;-0.0321
635.5;-0.0321
636.0;-0.0321
636.5;-0.0322
637.0;-0.0323
637.5;-0.0322
638.0;-0.0322
638.5;-0.0321
639.0;-0.0322
639.5;-0.0322
640.0;-0.0323
640.5;-0.0323
641.0;-0.0323
641.5;-0.0322
642.0;-0.0323
642.5;-0.0322
643.0;-0.0322
643.5;-0.0323
644.0;-0.0322
644.5;-0.0323
645.0;-0.0322
645.5;-0.0322
646.0;-0.0323
646.5;-0.0323
647.0;-0.0322
647.5;-0.0322
648.0;-0.0323
648.5;-0.0322
649.0;-0.0323
649.5;-0.0322
650.0;-0.0322
650.5;-0.0323
651.0;-0.0323
651.5;-0.0322
652.0;-0.0322
652.5;-0.0322
653.0;-0.0323
653.5;-0.0322
654.0;-0.0322
654.5;-0.0323
655.0;-0.0322
655.5;-0.0323
656.0;-0.0323
656.5;-0.0323
657.0;-0.0323
657.5;-0.0323
658.0;-0.0323
658.5;-0.0323
659.0;-0.0323
659.5;-0.0323
660.0;-0.0323
660.5;-0.0323
661.0;-0.0323
661.5;-0.0323
662.0;-0.0324
662.5;-0.0323
663.0;-0.0323
663.5;-0.0324
664.0;-0.0323
664.5;-0.0324
665.0;-0.0323
665.5;-0.0324
666.0;-0.0323
666.5;-0.0324
667.0;-0.0324
667.5;-0.0324
668.0;-0.0324
668.5;-0.0324
669.0;-0.0324
669.5;-0.0325
670.0;-0.0324
670.5;-0.0325
671.0;-0.0325
671.5;-0.0325
672.0;-0.0325
672.5;-0.0326
673.0;-0.0325
673.5;-0.0325
674.0;-0.0325
674.5;-0.0326
675.0;-0.0326
675.5;-0.0325
676.0;-0.0326
676.5;-0.0326
677.0;-0.0326
677.5;-0.0326
678.0;-0.0326
678.5;-0.0327
679.0;-0.0326
679.5;-0.0327
680.0;-0.0327
680.5;-0.0327
681.0;-0.0327
681.5;-0.0327
682.0;-0.0327
682.5;-0.0327
683.0;-0.0326
683.5;-0.0327
684.0;-0.0326
684.5;-0.0327
685.0;-0.0326
685.5;-0.0326
686.0;-0.0326
686.5;-0.0325
687.0;-0.0326
687.5;-0.0326
688.0;-0.0326
688.5;-0.0325
689.0;-0.0325
689.5;-0.0325
690.0;-0.0325
690.5;-0.0326
691.0;-0.0325
691.5;-0.0325
692.0;-0.0325
692.5;-0.0325
693.0;-0.0324
693.5;-0.0324
694.0;-0.0324
694.5;-0.0324
695.0;-0.0324
695.5;-0.0325
696.0;-0.0323
696.5;-0.0325
697.0;-0.0323
697.5;-0.0323
698.0;-0.0324
698.5;-0.0323
699.0;-0.0322
699.5;-0.0324
700.0;-0.0321
700.5;-0.0322
701.0;-0.0321
701.5;-0.0321
702.0;-0.0321
702.5;-0.0321
703.0;-0.0321
703.5;-0.0321
704.0;-0.0320
704.5;-0.0319
705.0;-0.0321
705.5;-0.0320
706.0;-0.0321
706.5;-0.0320
707.0;-0.0320
707.5;-0.0321
708.0;-0.0320
708.5;-0.0320
709.0;-0.0320
709.5;-0.0320
710.0;-0.0321
710.5;-0.0320
711.0;-0.0320
711.5;-0.0320
712.0;-0.0320
712.5;-0.0320
713.0;-0.0320
713.5;-0.0319
714.0;-0.0320
714.5;-0.0320
715.0;-0.0319
715.5;-0.0319
716.0;-0.0320
716.5;-0.0320
717.0;-0.0321
717.5;-0.0320
718.0;-0.0320
718.5;-0.0320
719.0;-0.0320
719.5;-0.0320
720.0;-0.0320
720.5;-0.0320
721.0;-0.0320
721.5;-0.0320
722.0;-0.0320
722.5;-0.0321
723.0;-0.0320
723.5;-0.0321
724.0;-0.0321
724.5;-0.0320
725.0;-0.0320
725.5;-0.0320
726.0;-0.0320
726.5;-0.0320
727.0;-0.0321
727.5;-0.0320
728.0;-0.0320
728.5;-0.0320
729.0;-0.0320
729.5;-0.0321
730.0;-0.0321
730.5;-0.0321
731.0;-0.0321
731.5;-0.0320
732.0;-0.0321
732.5;-0.0321
733.0;-0.0321
733.5;-0.0321
734.0;-0.0321
734.5;-0.0322
735.0;-0.0322
735.5;-0.0321
736.0;-0.0322
736.5;-0.0321
737.0;-0.0324
737.5;-0.0322
738.0;-0.0322
738.5;-0.0322
739.0;-0.0322
739.5;-0.0322
740.0;-0.0322
740.5;-0.0322
741.0;-0.0322
741.5;-0.0322
742.0;-0.0322
742.5;-0.0323
743.0;-0.0323
743.5;-0.0322
744.0;-0.0322
744.5;-0.0322
745.0;-0.0322
745.5;-0.0322
746.0;-0.0322
746.5;-0.0321
747.0;-0.0323
747.5;-0.0323
748.0;-0.0323
748.5;-0.0323
749.0;-0.0323
749.5;-0.0323
750.0;-0.0323
750.5;-0.0323
751.0;-0.0323
751.5;-0.0322
752.0;-0.0323
752.5;-0.0322
753.0;-0.0323
753.5;-0.0323
754.0;-0.0323
754.5;-0.0323
755.0;-0.0323
755.5;-0.0323
756.0;-0.0322
756.5;-0.0323
757.0;-0.0323
757.5;-0.0322
758.0;-0.0322
758.5;-0.0322
759.0;-0.0322
759.5;-0.0322
760.0;-0.0322
760.5;-0.0322
761.0;-0.0322
761.5;-0.0323
762.0;-0.0322
762.5;-0.0323
763.0;-0.0321
763.5;-0.0322
764.0;-0.0322
764.5;-0.0322
765.0;-0.0322
765.5;-0.0322
766.0;-0.0322
766.5;-0.0322
767.0;-0.0322
767.5;-0.0322
768.0;-0.0322
768.5;-0.0322
769.0;-0.0323
769.5;-0.0322
770.0;-0.0322
770.5;-0.0323
771.0;-0.0323
771.5;-0.0322
772.0;-0.0322
772.5;-0.0322
773.0;-0.0322
773.5;-0.0322
774.0;-0.0323
774.5;-0.0322
775.0;-0.0322
775.5;-0.0323
776.0;-0.0323
776.5;-0.0321
777.0;-0.0322
777.5;-0.0322
778.0;-0.0322
778.5;-0.0321
779.0;-0.0322
779.5;-0.0322
780.0;-0.0323
780.5;-0.0321
781.0;-0.0322
781.5;-0.0323
782.0;-0.0322
782.5;-0.0323
783.0;-0.0322
783.5;-0.0323
784.0;-0.0322
784.5;-0.0322
785.0;-0.0322
785.5;-0.0322
786.0;-0.0322
786.5;-0.0323
787.0;-0.0322
787.5;-0.0322
788.0;-0.0322
788.5;-0.0323
789.0;-0.0323
789.5;-0.0324
790.0;-0.0323
790.5;-0.0323
791.0;-0.0323
791.5;-0.0324
792.0;-0.0324
792.5;-0.0323
793.0;-0.0323
793.5;-0.0323
794.0;-0.0323
794.5;-0.0323
795.0;-0.0324
795.5;-0.0324
796.0;-0.0324
796.5;-0.0325
797.0;-0.0324
797.5;-0.0324
798.0;-0.0324
798.5;-0.0324
799.0;-0.0324
799.5;-0.0324
800.0;-0.0324
800.5;-0.0325
801.0;-0.0324
801.5;-0.0325
802.0;-0.0325
802.5;-0.0325
803.0;-0.0325
803.5;-0.0325
804.0;-0.0325
804.5;-0.0325
805.0;-0.0325
805.5;-0.0325
806.0;-0.0325
806.5;-0.0324
807.0;-0.0324
807.5;-0.0325
808.0;-0.0325
808.5;-0.0325
809.0;-0.0325
809.5;-0.0326
810.0;-0.0325
810.5;-0.0326
811.0;-0.0325
811.5;-0.0325
812.0;-0.0326
812.5;-0.0326
813.0;-0.0326
813.5;-0.0326
814.0;-0.0325
814.5;-0.0326
815.0;-0.0326
815.5;-0.0326
816.0;-0.0326
816.5;-0.0326
817.0;-0.0325
817.5;-0.0326
818.0;-0.0325
818.5;-0.0324
819.0;-0.0326
819.5;-0.0324
820.0;-0.0325
820.5;-0.0325
821.0;-0.0325
821.5;-0.0324
822.0;-0.0325
822.5;-0.0324
823.0;-0.0324
823.5;-0.0325
824.0;-0.0324
824.5;-0.0325
825.0;-0.0324
825.5;-0.0323
826.0;-0.0324
826.5;-0.0323
827.0;-0.0323
827.5;-0.0322
828.0;-0.0322
828.5;-0.0322
829.0;-0.0322
829.5;-0.0322
830.0;-0.0322
830.5;-0.0322
831.0;-0.0322
831.5;-0.0322
832.0;-0.0322
832.5;-0.0322
833.0;-0.0322
833.5;-0.0322
834.0;-0.0323
834.5;-0.0322
835.0;-0.0323
835.5;-0.0323
836.0;-0.0323
836.5;-0.0323
837.0;-0.0323
837.5;-0.0322
838.0;-0.0323
838.5;-0.0322
839.0;-0.0322
839.5;-0.0322
840.0;-0.0322
840.5;-0.0322
841.0;-0.0322
841.5;-0.0323
842.0;-0.0321
842.5;-0.0321
843.0;-0.0321
843.5;-0.0322
844.0;-0.0322
844.5;-0.0321
845.0;-0.0321
845.5;-0.0321
846.0;-0.0322
846.5;-0.0321
847.0;-0.0321
847.5;-0.0321
848.0;-0.0321
848.5;-0.0321
849.0;-0.0321
849.5;-0.0321
850.0;-0.0321
850.5;-0.0321
851.0;-0.0321
851.5;-0.0322
852.0;-0.0322
852.5;-0.0322
853.0;-0.0322
853.5;-0.0322
854.0;-0.0322
854.5;-0.0321
855.0;-0.0322
855.5;-0.0321
856.0;-0.0322
856.5;-0.0322
857.0;-0.0322
857.5;-0.0321
858.0;-0.0322
858.5;-0.0323
859.0;-0.0323
859.5;-0.0322
860.0;-0.0322
860.5;-0.0322
861.0;-0.0322
861.5;-0.0322
862.0;-0.0322
862.5;-0.0322
863.0;-0.0322
863.5;-0.0324
864.0;-0.0323
864.5;-0.0323
865.0;-0.0323
865.5;-0.0324
866.0;-0.0323
866.5;-0.0323
867.0;-0.0323
867.5;-0.0324
868.0;-0.0324
868.5;-0.0324
869.0;-0.0324
869.5;-0.0324
870.0;-0.0325
870.5;-0.0325
871.0;-0.0325
871.5;-0.0324
872.0;-0.0324
872.5;-0.0324
873.0;-0.0326
873.5;-0.0325
874.0;-0.0326
874.5;-0.0327
875.0;-0.0326
875.5;-0.0326
876.0;-0.0326
876.5;-0.0327
877.0;-0.0326
877.5;-0.0325
878.0;-0.0326
878.5;-0.0326
879.0;-0.0326
879.5;-0.0326
880.0;-0.0326
880.5;-0.0325
881.0;-0.0326
881.5;-0.0326
882.0;-0.0326
882.5;-0.0326
883.0;-0.0326
883.5;-0.0326
884.0;-0.0326
884.5;-0.0326
885.0;-0.0326
885.5;-0.0326
886.0;-0.0327
886.5;-0.0327
887.0;-0.0327
887.5;-0.0327
888.0;-0.0327
888.5;-0.0326
889.0;-0.0327
889.5;-0.0327
890.0;-0.0327
890.5;-0.0327
891.0;-0.0327
891.5;-0.0327
892.0;-0.0326
892.5;-0.0326
893.0;-0.0327
893.5;-0.0326
894.0;-0.0327
894.5;-0.0326
895.0;-0.0326
895.5;-0.0326
896.0;-0.0325
896.5;-0.0326
897.0;-0.0326
897.5;-0.0326
898.0;-0.0326
898.5;-0.0326
899.0;-0.0325
899.5;-0.0326
900.0;-0.0326
900.5;-0.0326
901.0;-0.0326
901.5;-0.0326
902.0;-0.0326
902.5;-0.0326
903.0;-0.0326
903.5;-0.0326
904.0;-0.0325
904.5;-0.0325
905.0;-0.0326
905.5;-0.0325
906.0;-0.0325
906.5;-0.0325
907.0;-0.0325
907.5;-0.0324
908.0;-0.0325
908.5;-0.0325
909.0;-0.0324
909.5;-0.0324
910.0;-0.0325
910.5;-0.0324
911.0;-0.0324
911.5;-0.0324
912.0;-0.0324
912.5;-0.0324
913.0;-0.0324
913.5;-0.0324
914.0;-0.0324
914.5;-0.0325
915.0;-0.0325
915.5;-0.0324
916.0;-0.0324
916.5;-0.0324
917.0;-0.0324
917.5;-0.0324
918.0;-0.0324
918.5;-0.0324
919.0;-0.0324
919.5;-0.0324
920.0;-0.0324
920.5;-0.0325
921.0;-0.0324
921.5;-0.0324
922.0;-0.0324
922.5;-0.0324
923.0;-0.0325
923.5;-0.0325
924.0;-0.0324
924.5;-0.0325
925.0;-0.0324
925.5;-0.0325
926.0;-0.0325
926.5;-0.0326
927.0;-0.0326
927.5;-0.0326
928.0;-0.0326
928.5;-0.0325
929.0;-0.0325
929.5;-0.0326
930.0;-0.0326
930.5;-0.0325
931.0;-0.0326
931.5;-0.0326
932.0;-0.0326
932.5;-0.0326
933.0;-0.0327
933.5;-0.0327
934.0;-0.0327
934.5;-0.0328
935.0;-0.0327
935.5;-0.0328
936.0;-0.0328
936.5;-0.0328
937.0;-0.0328
937.5;-0.0327
938.0;-0.0328
938.5;-0.0328
939.0;-0.0328
939.5;-0.0327
940.0;-0.0328
940.5;-0.0327
941.0;-0.0327
941.5;-0.0327
942.0;-0.0327
942.5;-0.0327
943.0;-0.0327
943.5;-0.0327
944.0;-0.0327
944.5;-0.0326
945.0;-0.0327
945.5;-0.0326
946.0;-0.0327
946.5;-0.0326
947.0;-0.0326
947.5;-0.0326
948.0;-0.0326
948.5;-0.0326
949.0;-0.0326
949.5;-0.0326
950.0;-0.0327
950.5;-0.0327
951.0;-0.0327
951.5;-0.0328
952.0;-0.0328
952.5;-0.0328
953.0;-0.0329
953.5;-0.0330
954.0;-0.0330
954.5;-0.0331
955.0;-0.0332
955.5;-0.0333
956.0;-0.0334
956.5;-0.0334
957.0;-0.0335
957.5;-0.0336
958.0;-0.0336
958.5;-0.0337
959.0;-0.0336
959.5;-0.0336
960.0;-0.0337
960.5;-0.0338
961.0;-0.0337
961.5;-0.0337
962.0;-0.0337
962.5;-0.0337
963.0;-0.0336
963.5;-0.0337
964.0;-0.0336
964.5;-0.0336
965.0;-0.0336
965.5;-0.0336
966.0;-0.0335
966.5;-0.0335
967.0;-0.0335
967.5;-0.0334
968.0;-0.0334
968.5;-0.0334
969.0;-0.0333
969.5;-0.0333
970.0;-0.0333
970.5;-0.0332
971.0;-0.0332
971.5;-0.0333
972.0;-0.0332
972.5;-0.0331
973.0;-0.0332
973.5;-0.0332
974.0;-0.0330
974.5;-0.0330
975.0;-0.0330
975.5;-0.0330
976.0;-0.0330
976.5;-0.0328
977.0;-0.0328
977.5;-0.0328
978.0;-0.0327
978.5;-0.0327
979.0;-0.0326
979.5;-0.0326
980.0;-0.0325
980.5;-0.0325
981.0;-0.0324
981.5;-0.0324
982.0;-0.0323
982.5;-0.0322
983.0;-0.0322
983.5;-0.0321
984.0;-0.0321
984.5;-0.0320
985.0;-0.0320
985.5;-0.0318
986.0;-0.0318
986.5;-0.0318
987.0;-0.0317
987.5;-0.0316
988.0;-0.0315
988.5;-0.0315
989.0;-0.0314
989.5;-0.0313
990.0;-0.0312
990.5;-0.0311
991.0;-0.0311
991.5;-0.0311
992.0;-0.0309
992.5;-0.0307
993.0;-0.0307
993.5;-0.0306
994.0;-0.0305
994.5;-0.0303
995.0;-0.0302
995.5;-0.0302
996.0;-0.0301
996.5;-0.0299
997.0;-0.0299
997.5;-0.0298
998.0;-0.0296
998.5;-0.0296
999.0;-0.0295
999.5;-0.0293
1000.0;-0.0294
1000.5;-0.0293
1001.0;-0.0291
1001.5;-0.0290
1002.0;-0.0289
1002.5;-0.0287
1003.0;-0.0287
1003.5;-0.0285
1004.0;-0.0285
1004.5;-0.0283
1005.0;-0.0283
1005.5;-0.0280
1006.0;-0.0280
1006.5;-0.0278
1007.0;-0.0277
1007.5;-0.0275
1008.0;-0.0273
1008.5;-0.0272
1009.0;-0.0271
1009.5;-0.0270
1010.0;-0.0268
1010.5;-0.0266
1011.0;-0.0265
1011.5;-0.0264
1012.0;-0.0262
1012.5;-0.0262
1013.0;-0.0260
1013.5;-0.0258
1014.0;-0.0257
1014.5;-0.0256
1015.0;-0.0255
1015.5;-0.0253
1016.0;-0.0251
1016.5;-0.0250
1017.0;-0.0248
1017.5;-0.0246
1018.0;-0.0246
1018.5;-0.0243
1019.0;-0.0241
1019.5;-0.0240
1020.0;-0.0239
1020.5;-0.0237
1021.0;-0.0234
1021.5;-0.0231
1022.0;-0.0232
1022.5;-0.0229
1023.0;-0.0227
1023.5;-0.0225
1024.0;-0.0224
1024.5;-0.0222
1025.0;-0.0220
1025.5;-0.0219
1026.0;-0.0217
1026.5;-0.0216
1027.0;-0.0214
1027.5;-0.0211
1028.0;-0.0210
1028.5;-0.0208
1029.0;-0.0206
1029.5;-0.0203
1030.0;-0.0202
1030.5;-0.0200
1031.0;-0.0198
1031.5;-0.0196
1032.0;-0.0193
1032.5;-0.0192
1033.0;-0.0191
1033.5;-0.0188
1034.0;-0.0187
1034.5;-0.0184
1035.0;-0.0182
1035.5;-0.0180
1036.0;-0.0177
1036.5;-0.0176
1037.0;-0.0173
1037.5;-0.0170
1038.0;-0.0169
1038.5;-0.0166
1039.0;-0.0163
1039.5;-0.0161
1040.0;-0.0159
1040.5;-0.0158
1041.0;-0.0155
1041.5;-0.0152
1042.0;-0.0151
1042.5;-0.0147
1043.0;-0.0146
1043.5;-0.0143
1044.0;-0.0141
1044.5;-0.0138
1045.0;-0.0135
1045.5;-0.0133
1046.0;-0.0131
1046.5;-0.0129
1047.0;-0.0127
1047.5;-0.0125
1048.0;-0.0122
1048.5;-0.0120
1049.0;-0.0118
1049.5;-0.0116
1050.0;-0.0113
1050.5;-0.0112
1051.0;-0.0109
1051.5;-0.0106
1052.0;-0.0105
1052.5;-0.0103
1053.0;-0.0100
1053.5;-0.0097
1054.0;-0.0096
1054.5;-0.0093
1055.0;-0.0090
1055.5;-0.0088
1056.0;-0.0085
1056.5;-0.0079
1057.0;-0.0076
1057.5;-0.0070
1058.0;-0.0066
1058.5;-0.0062
1059.0;-0.0056
1059.5;-0.0051
1060.0;-0.0046
1060.5;-0.0044
1061.0;-0.0040
1061.5;-0.0038
1062.0;-0.0040
1062.5;-0.0042
1063.0;-0.0044
1063.5;-0.0046
1064.0;-0.0051
1064.5;-0.0054
1065.0;-0.0057
1065.5;-0.0061
1066.0;-0.0064
1066.5;-0.0064
1067.0;-0.0066
1067.5;-0.0066
1068.0;-0.0065
1068.5;-0.0067
1069.0;-0.0067
1069.5;-0.0066
1070.0;-0.0066
1070.5;-0.0064
1071.0;-0.0062
1071.5;-0.0063
1072.0;-0.0060
1072.5;-0.0058
1073.0;-0.0058
1073.5;-0.0057
1074.0;-0.0055
1074.5;-0.0053
1075.0;-0.0054
1075.5;-0.0050
1076.0;-0.0051
1076.5;-0.0049
1077.0;-0.0046
1077.5;-0.0048
1078.0;-0.0044
1078.5;-0.0047
1079.0;-0.0043
1079.5;-0.0042
1080.0;-0.0041
1080.5;-0.0042
1081.0;-0.0041
1081.5;-0.0038
1082.0;-0.0037
1082.5;-0.0037
1083.0;-0.0036
1083.5;-0.0035
1084.0;-0.0033
1084.5;-0.0033
1085.0;-0.0033
1085.5;-0.0029
1086.0;-0.0031
1086.5;-0.0029
1087.0;-0.0028
1087.5;-0.0027
1088.0;-0.0026
1088.5;-0.0026
1089.0;-0.0022
1089.5;-0.0021
1090.0;-0.0022
1090.5;-0.0018
1091.0;-0.0019
1091.5;-0.0018
1092.0;-0.0017
1092.5;-0.0015
1093.0;-0.0014
1093.5;-0.0013
1094.0;-0.0012
1094.5;-0.0010
1095.0;-0.0009
1095.5;-0.0009
1096.0;-0.0005
1096.5;-0.0004
1097.0;-0.0007
1097.5;-0.0003
1098.0;-0.0003
1098.5;-0.0004
1099.0;-0.0003
1099.5;0.0002
1100.0;-0.0004
