[nm];[A];
;Sample 1;
190.0;0.1064
190.5;-0.2556
191.0;-0.0342
191.5;0.0640
192.0;0.0573
192.5;-0.0044
193.0;0.1332
193.5;0.2432
194.0;0.1734
194.5;-0.0035
195.0;0.0734
195.5;0.0431
196.0;0.0530
196.5;0.1047
197.0;0.0581
197.5;0.0359
198.0;0.0425
198.5;0.0539
199.0;0.1057
199.5;0.0896
200.0;0.0905
200.5;0.0911
201.0;0.0989
201.5;0.0956
202.0;0.0865
202.5;0.0768
203.0;0.0728
203.5;0.0670
204.0;0.0639
204.5;0.0564
205.0;0.0523
205.5;0.0486
206.0;0.0446
206.5;0.0424
207.0;0.0397
207.5;0.0378
208.0;0.0360
208.5;0.0342
209.0;0.0332
209.5;0.0330
210.0;0.0336
210.5;0.0342
211.0;0.0350
211.5;0.0360
212.0;0.0376
212.5;0.0389
213.0;0.0412
213.5;0.0440
214.0;0.0472
214.5;0.0501
215.0;0.0526
215.5;0.0545
216.0;0.0568
216.5;0.0586
217.0;0.0607
217.5;0.0633
218.0;0.0658
218.5;0.0685
219.0;0.0711
219.5;0.0738
220.0;0.0756
220.5;0.0775
221.0;0.0791
221.5;0.0806
222.0;0.0814
222.5;0.0825
223.0;0.0830
223.5;0.0838
224.0;0.0841
224.5;0.0843
225.0;0.0845
225.5;0.0844
226.0;0.0847
226.5;0.0843
227.0;0.0840
227.5;0.0839
228.0;0.0833
228.5;0.0831
229.0;0.0824
229.5;0.0823
230.0;0.0816
230.5;0.0813
231.0;0.0807
231.5;0.0805
232.0;0.0805
232.5;0.0801
233.0;0.0801
233.5;0.0803
234.0;0.0800
234.5;0.0805
235.0;0.0808
235.5;0.0812
236.0;0.0817
236.5;0.0818
237.0;0.0823
237.5;0.0824
238.0;0.0826
238.5;0.0820
239.0;0.0817
239.5;0.0806
240.0;0.0793
240.5;0.0776
241.0;0.0758
241.5;0.0745
242.0;0.0734
242.5;0.0721
243.0;0.0714
243.5;0.0704
244.0;0.0704
244.5;0.0703
245.0;0.0707
245.5;0.0709
246.0;0.0716
246.5;0.0730
247.0;0.0740
247.5;0.0752
248.0;0.0769
248.5;0.0787
249.0;0.0809
249.5;0.0826
250.0;0.0849
250.5;0.0866
251.0;0.0883
251.5;0.0900
252.0;0.0913
252.5;0.0921
253.0;0.0940
253.5;0.0942
254.0;0.0958
254.5;0.0960
255.0;0.0969
255.5;0.0978
256.0;0.0979
256.5;0.0985
257.0;0.0993
257.5;0.1000
258.0;0.1002
258.5;0.1005
259.0;0.1005
259.5;0.0994
260.0;0.0998
260.5;0.0981
261.0;0.0965
261.5;0.0943
262.0;0.0917
262.5;0.0896
263.0;0.0867
263.5;0.0844
264.0;0.0808
264.5;0.0779
265.0;0.0740
265.5;0.0712
266.0;0.0677
266.5;0.0650
267.0;0.0624
267.5;0.0601
268.0;0.0571
268.5;0.0555
269.0;0.0535
269.5;0.0526
270.0;0.0515
270.5;0.0503
271.0;0.0495
271.5;0.0482
272.0;0.0486
272.5;0.0477
273.0;0.0477
273.5;0.0472
274.0;0.0468
274.5;0.0469
275.0;0.0467
275.5;0.0472
276.0;0.0466
276.5;0.0467
277.0;0.0472
277.5;0.0467
278.0;0.0474
278.5;0.0470
279.0;0.0473
279.5;0.0472
280.0;0.0474
280.5;0.0471
281.0;0.0472
281.5;0.0476
282.0;0.0471
282.5;0.0473
283.0;0.0478
283.5;0.0479
284.0;0.0474
284.5;0.0468
285.0;0.0472
285.5;0.0467
286.0;0.0461
286.5;0.0464
287.0;0.0468
287.5;0.0451
288.0;0.0457
288.5;0.0452
289.0;0.0452
289.5;0.0454
290.0;0.0445
290.5;0.0461
291.0;0.0451
291.5;0.0450
292.0;0.0448
292.5;0.0440
293.0;0.0450
293.5;0.0448
294.0;0.0443
294.5;0.0441
295.0;0.0447
295.5;0.0448
296.0;0.0442
296.5;0.0449
297.0;0.0461
297.5;0.0462
298.0;0.0452
298.5;0.0464
299.0;0.0457
299.5;0.0454
300.0;0.0461
300.5;0.0467
301.0;0.0467
301.5;0.0467
302.0;0.0464
302.5;0.0473
303.0;0.0475
303.5;0.0480
304.0;0.0478
304.5;0.0476
305.0;0.0487
305.5;0.0486
306.0;0.0476
306.5;0.0473
307.0;0.0468
307.5;0.0480
308.0;0.0462
308.5;0.0448
309.0;0.0442
309.5;0.0434
310.0;0.0412
310.5;0.0402
311.0;0.0386
311.5;0.0377
312.0;0.0363
312.5;0.0353
313.0;0.0317
313.5;0.0314
314.0;0.0276
314.5;0.0271
315.0;0.0248
315.5;0.0243
316.0;0.0219
316.5;0.0205
317.0;0.0188
317.5;0.0183
318.0;0.0166
318.5;0.0159
319.0;0.0147
319.5;0.0144
320.0;0.0121
320.5;0.0124
321.0;0.0117
321.5;0.0103
322.0;0.0109
322.5;0.0116
323.0;0.0116
323.5;0.0081
324.0;0.0076
324.5;0.0094
325.0;0.0078
325.5;0.0089
326.0;0.0085
326.5;0.0083
327.0;0.0082
327.5;0.0082
328.0;0.0093
328.5;0.0088
329.0;0.0080
329.5;0.0092
330.0;0.0090
330.5;0.0101
331.0;0.0095
331.5;0.0097
332.0;0.0109
332.5;0.0109
333.0;0.0111
333.5;0.0113
334.0;0.0133
334.5;0.0137
335.0;0.0131
335.5;0.0135
336.0;0.0145
336.5;0.0148
337.0;0.0161
337.5;0.0160
338.0;0.0158
338.5;0.0173
339.0;0.0175
339.5;0.0173
340.0;0.0178
340.5;0.0177
341.0;0.0183
341.5;0.0173
342.0;0.0187
342.5;0.0197
343.0;0.0189
343.5;0.0194
344.0;0.0199
344.5;0.0207
345.0;0.0218
345.5;0.0207
346.0;0.0227
346.5;0.0231
347.0;0.0244
347.5;0.0237
348.0;0.0237
348.5;0.0248
349.0;0.0257
349.5;0.0267
350.0;0.0279
350.5;0.0290
351.0;0.0293
351.5;0.0297
352.0;0.0303
352.5;0.0306
353.0;0.0318
353.5;0.0315
354.0;0.0323
354.5;0.0320
355.0;0.0314
355.5;0.0320
356.0;0.0313
356.5;0.0305
357.0;0.0310
357.5;0.0310
358.0;0.0297
358.5;0.0281
359.0;0.0281
359.5;0.0268
360.0;0.0260
360.5;0.0255
361.0;0.0247
361.5;0.0231
362.0;0.0230
362.5;0.0223
363.0;0.0209
363.5;0.0200
364.0;0.0192
364.5;0.0180
365.0;0.0178
365.5;0.0168
366.0;0.0160
366.5;0.0161
367.0;0.0146
367.5;0.0141
368.0;0.0128
368.5;0.0131
369.0;0.0116
369.5;0.0125
370.0;0.0108
370.5;0.0102
371.0;0.0099
371.5;0.0097
372.0;0.0093
372.5;0.0088
373.0;0.0085
373.5;0.0076
374.0;0.0087
374.5;0.0076
375.0;0.0075
375.5;0.0078
376.0;0.0070
376.5;0.0071
377.0;0.0075
377.5;0.0079
378.0;0.0073
378.5;0.0074
379.0;0.0072
379.5;0.0080
380.0;0.0073
380.5;0.0068
381.0;0.0075
381.5;0.0071
382.0;0.0074
382.5;0.0076
383.0;0.0075
383.5;0.0072
384.0;0.0077
384.5;0.0075
385.0;0.0082
385.5;0.0078
386.0;0.0080
386.5;0.0085
387.0;0.0084
387.5;0.0085
388.0;0.0082
388.5;0.0090
389.0;0.0087
389.5;0.0087
390.0;0.0091
390.5;0.0092
391.0;0.0090
391.5;0.0095
392.0;0.0096
392.5;0.0092
393.0;0.0092
393.5;0.0098
394.0;0.0101
394.5;0.0093
395.0;0.0097
395.5;0.0096
396.0;0.0094
396.5;0.0095
397.0;0.0099
397.5;0.0094
398.0;0.0096
398.5;0.0095
399.0;0.0094
399.5;0.0092
400.0;0.0093
400.5;0.0089
401.0;0.0094
401.5;0.0092
402.0;0.0091
402.5;0.0090
403.0;0.0092
403.5;0.0091
404.0;0.0090
404.5;0.0091
405.0;0.0087
405.5;0.0089
406.0;0.0089
406.5;0.0087
407.0;0.0086
407.5;0.0089
408.0;0.0089
408.5;0.0089
409.0;0.0087
409.5;0.0088
410.0;0.0083
410.5;0.0089
411.0;0.0084
411.5;0.0088
412.0;0.0090
412.5;0.0083
413.0;0.0085
413.5;0.0084
414.0;0.0087
414.5;0.0084
415.0;0.0082
415.5;0.0081
416.0;0.0081
416.5;0.0085
417.0;0.0083
417.5;0.0080
418.0;0.0084
418.5;0.0083
419.0;0.0081
419.5;0.0077
420.0;0.0075
420.5;0.0074
421.0;0.0077
421.5;0.0075
422.0;0.0072
422.5;0.0072
423.0;0.0068
423.5;0.0068
424.0;0.0065
424.5;0.0063
425.0;0.0064
425.5;0.0061
426.0;0.0058
426.5;0.0055
427.0;0.0056
427.5;0.0052
428.0;0.0054
428.5;0.0053
429.0;0.0050
429.5;0.0047
430.0;0.0046
430.5;0.0043
431.0;0.0045
431.5;0.0040
432.0;0.0040
432.5;0.0038
433.0;0.0034
433.5;0.0032
434.0;0.0034
434.5;0.0032
435.0;0.0031
435.5;0.0030
436.0;0.0029
436.5;0.0028
437.0;0.0026
437.5;0.0028
438.0;0.0022
438.5;0.0023
439.0;0.0027
439.5;0.0025
440.0;0.0024
440.5;0.0023
441.0;0.0022
441.5;0.0022
442.0;0.0024
442.5;0.0023
443.0;0.0022
443.5;0.0020
444.0;0.0024
444.5;0.0026
445.0;0.0024
445.5;0.0028
446.0;0.0026
446.5;0.0024
447.0;0.0026
447.5;0.0027
448.0;0.0030
448.5;0.0029
449.0;0.0030
449.5;0.0028
450.0;0.0031
450.5;0.0029
451.0;0.0033
451.5;0.0034
452.0;0.0038
452.5;0.0037
453.0;0.0037
453.5;0.0040
454.0;0.0041
454.5;0.0043
455.0;0.0047
455.5;0.0048
456.0;0.0048
456.5;0.0052
457.0;0.0050
457.5;0.0051
458.0;0.0056
458.5;0.0057
459.0;0.0062
459.5;0.0068
460.0;0.0068
460.5;0.0071
461.0;0.0073
461.5;0.0076
462.0;0.0077
462.5;0.0082
463.0;0.0086
463.5;0.0090
464.0;0.0092
464.5;0.0096
465.0;0.0095
465.5;0.0099
466.0;0.0101
466.5;0.0109
467.0;0.0114
467.5;0.0116
468.0;0.0120
468.5;0.0123
469.0;0.0126
469.5;0.0132
470.0;0.0137
470.5;0.0144
471.0;0.0147
471.5;0.0154
472.0;0.0159
472.5;0.0165
473.0;0.0170
473.5;0.0177
474.0;0.0182
474.5;0.0188
475.0;0.0192
475.5;0.0198
476.0;0.0202
476.5;0.0207
477.0;0.0212
477.5;0.0217
478.0;0.0222
478.5;0.0228
479.0;0.0233
479.5;0.0239
480.0;0.0244
480.5;0.0251
481.0;0.0257
481.5;0.0263
482.0;0.0269
482.5;0.0274
483.0;0.0284
483.5;0.0289
484.0;0.0296
484.5;0.0305
485.0;0.0313
485.5;0.0322
486.0;0.0331
486.5;0.0340
487.0;0.0348
487.5;0.0358
488.0;0.0366
488.5;0.0378
489.0;0.0389
489.5;0.0401
490.0;0.0414
490.5;0.0425
491.0;0.0440
491.5;0.0454
492.0;0.0468
492.5;0.0484
493.0;0.0500
493.5;0.0516
494.0;0.0534
494.5;0.0551
495.0;0.0568
495.5;0.0585
496.0;0.0604
496.5;0.0623
497.0;0.0642
497.5;0.0660
498.0;0.0680
498.5;0.0698
499.0;0.0718
499.5;0.0738
500.0;0.0757
500.5;0.0777
501.0;0.0795
501.5;0.0814
502.0;0.0832
502.5;0.0851
503.0;0.0869
503.5;0.0886
504.0;0.0903
504.5;0.0920
505.0;0.0937
505.5;0.0952
506.0;0.0967
506.5;0.0982
507.0;0.0996
507.5;0.1009
508.0;0.1023
508.5;0.1033
509.0;0.1046
509.5;0.1058
510.0;0.1067
510.5;0.1079
511.0;0.1089
511.5;0.1099
512.0;0.1108
512.5;0.1117
513.0;0.1128
513.5;0.1137
514.0;0.1146
514.5;0.1155
515.0;0.1165
515.5;0.1176
516.0;0.1187
516.5;0.1199
517.0;0.1210
517.5;0.1225
518.0;0.1238
518.5;0.1255
519.0;0.1271
519.5;0.1288
520.0;0.1308
520.5;0.1329
521.0;0.1350
521.5;0.1375
522.0;0.1399
522.5;0.1427
523.0;0.1454
523.5;0.1486
524.0;0.1517
524.5;0.1551
525.0;0.1587
525.5;0.1627
526.0;0.1667
526.5;0.1709
527.0;0.1753
527.5;0.1800
528.0;0.1846
528.5;0.1896
529.0;0.1947
529.5;0.1999
530.0;0.2053
530.5;0.2110
531.0;0.2168
531.5;0.2227
532.0;0.2287
532.5;0.2349
533.0;0.2412
533.5;0.2475
534.0;0.2538
534.5;0.2601
535.0;0.2665
535.5;0.2728
536.0;0.2790
536.5;0.2851
537.0;0.2912
537.5;0.2971
538.0;0.3028
538.5;0.3084
539.0;0.3137
539.5;0.3189
540.0;0.3238
540.5;0.3284
541.0;0.3326
541.5;0.3365
542.0;0.3400
542.5;0.3430
543.0;0.3457
543.5;0.3480
544.0;0.3497
544.5;0.3510
545.0;0.3519
545.5;0.3523
546.0;0.3521
546.5;0.3514
547.0;0.3502
547.5;0.3486
548.0;0.3462
548.5;0.3435
549.0;0.3402
549.5;0.3364
550.0;0.3322
550.5;0.3275
551.0;0.3223
551.5;0.3167
552.0;0.3108
552.5;0.3044
553.0;0.2977
553.5;0.2905
554.0;0.2831
554.5;0.2753
555.0;0.2674
555.5;0.2593
556.0;0.2512
556.5;0.2429
557.0;0.2347
557.5;0.2265
558.0;0.2183
558.5;0.2098
559.0;0.2012
559.5;0.1927
560.0;0.1841
560.5;0.1758
561.0;0.1674
561.5;0.1593
562.0;0.1514
562.5;0.1436
563.0;0.1360
563.5;0.1287
564.0;0.1216
564.5;0.1148
565.0;0.1081
565.5;0.1018
566.0;0.0957
566.5;0.0897
567.0;0.0842
567.5;0.0787
568.0;0.0736
568.5;0.0688
569.0;0.0643
569.5;0.0600
570.0;0.0561
570.5;0.0524
571.0;0.0489
571.5;0.0456
572.0;0.0425
572.5;0.0395
573.0;0.0368
573.5;0.0343
574.0;0.0319
574.5;0.0297
575.0;0.0275
575.5;0.0256
576.0;0.0239
576.5;0.0223
577.0;0.0208
577.5;0.0194
578.0;0.0182
578.5;0.0170
579.0;0.0160
579.5;0.0150
580.0;0.0141
580.5;0.0132
581.0;0.0125
581.5;0.0117
582.0;0.0112
582.5;0.0105
583.0;0.0100
583.5;0.0095
584.0;0.0090
584.5;0.0085
585.0;0.0082
585.5;0.0079
586.0;0.0075
586.5;0.0072
587.0;0.0070
587.5;0.0068
588.0;0.0065
588.5;0.0063
589.0;0.0061
589.5;0.0059
590.0;0.0057
590.5;0.0056
591.0;0.0053
591.5;0.0051
592.0;0.0049
592.5;0.0047
593.0;0.0045
593.5;0.0043
594.0;0.0042
594.5;0.0039
595.0;0.0038
595.5;0.0037
596.0;0.0036
596.5;0.0033
597.0;0.0031
597.5;0.0030
598.0;0.0028
598.5;0.0026
599.0;0.0024
599.5;0.0023
600.0;0.0021
600.5;0.0019
601.0;0.0018
601.5;0.0017
602.0;0.0016
602.5;0.0015
603.0;0.0013
603.5;0.0011
604.0;0.0011
604.5;0.0009
605.0;0.0008
605.5;0.0007
606.0;0.0005
606.5;0.0004
607.0;0.0003
607.5;0.0002
608.0;0.0000
608.5;0.0001
609.0;-0.0001
609.5;-0.0002
610.0;-0.0002
610.5;-0.0003
611.0;-0.0004
611.5;-0.0004
612.0;-0.0005
612.5;-0.0005
613.0;-0.0005
613.5;-0.0006
614.0;-0.0005
614.5;-0.0006
615.0;-0.0005
615.5;-0.0006
616.0;-0.0005
616.5;-0.0006
617.0;-0.0006
617.5;-0.0006
618.0;-0.0006
618.5;-0.0006
619.0;-0.0006
619.5;-0.0006
620.0;-0.0006
620.5;-0.0007
621.0;-0.0006
621.5;-0.0007
622.0;-0.0007
622.5;-0.0007
623.0;-0.0007
623.5;-0.0007
624.0;-0.0007
624.5;-0.0007
625.0;-0.0007
625.5;-0.0007
626.0;-0.0007
626.5;-0.0007
627.0;-0.0006
627.5;-0.0007
628.0;-0.0007
628.5;-0.0009
629.0;-0.0007
629.5;-0.0008
630.0;-0.0007
630.5;-0.0008
631.0;-0.0008
631.5;-0.0008
632.0;-0.0008
632.5;-0.0007
633.0;-0.0008
633.5;-0.0008
634.0;-0.0009
634.5;-0.0008
635.0;-0.0008
635.5;-0.0008
636.0;-0.0008
636.5;-0.0008
637.0;-0.0007
637.5;-0.0008
638.0;-0.0007
638.5;-0.0008
639.0;-0.0008
639.5;-0.0008
640.0;-0.0008
640.5;-0.0009
641.0;-0.0008
641.5;-0.0008
642.0;-0.0008
642.5;-0.0008
643.0;-0.0008
643.5;-0.0008
644.0;-0.0008
644.5;-0.0009
645.0;-0.0007
645.5;-0.0008
646.0;-0.0008
646.5;-0.0008
647.0;-0.0008
647.5;-0.0008
648.0;-0.0008
648.5;-0.0008
649.0;-0.0008
649.5;-0.0008
650.0;-0.0007
650.5;-0.0008
651.0;-0.0007
651.5;-0.0007
652.0;-0.0007
652.5;-0.0006
653.0;-0.0006
653.5;-0.0007
654.0;-0.0006
654.5;-0.0007
655.0;-0.0006
655.5;-0.0006
656.0;-0.0007
656.5;-0.0006
657.0;-0.0006
657.5;-0.0006
658.0;-0.0006
658.5;-0.0006
659.0;-0.0006
659.5;-0.0006
660.0;-0.0006
660.5;-0.0006
661.0;-0.0007
661.5;-0.0007
662.0;-0.0006
662.5;-0.0006
663.0;-0.0007
663.5;-0.0007
664.0;-0.0006
664.5;-0.0006
665.0;-0.0006
665.5;-0.0007
666.0;-0.0007
666.5;-0.0008
667.0;-0.0007
667.5;-0.0008
668.0;-0.0008
668.5;-0.0008
669.0;-0.0008
669.5;-0.0009
670.0;-0.0009
670.5;-0.0009
671.0;-0.0009
671.5;-0.0010
672.0;-0.0009
672.5;-0.0009
673.0;-0.0009
673.5;-0.0008
674.0;-0.0008
674.5;-0.0009
675.0;-0.0008
675.5;-0.0008
676.0;-0.0008
676.5;-0.0008
677.0;-0.0008
677.5;-0.0008
678.0;-0.0007
678.5;-0.0008
679.0;-0.0008
679.5;-0.0008
680.0;-0.0008
680.5;-0.0008
681.0;-0.0008
681.5;-0.0007
682.0;-0.0007
682.5;-0.0007
683.0;-0.0008
683.5;-0.0008
684.0;-0.0008
684.5;-0.0007
685.0;-0.0007
685.5;-0.0007
686.0;-0.0007
686.5;-0.0007
687.0;-0.0007
687.5;-0.0007
688.0;-0.0007
688.5;-0.0007
689.0;-0.0007
689.5;-0.0007
690.0;-0.0007
690.5;-0.0006
691.0;-0.0007
691.5;-0.0007
692.0;-0.0008
692.5;-0.0008
693.0;-0.0009
693.5;-0.0009
694.0;-0.0009
694.5;-0.0009
695.0;-0.0009
695.5;-0.0009
696.0;-0.0009
696.5;-0.0009
697.0;-0.0009
697.5;-0.0007
698.0;-0.0008
698.5;-0.0009
699.0;-0.0008
699.5;-0.0009
700.0;-0.0009
700.5;-0.0010
701.0;-0.0009
701.5;-0.0009
702.0;-0.0010
702.5;-0.0009
703.0;-0.0010
703.5;-0.0011
704.0;-0.0010
704.5;-0.0010
705.0;-0.0011
705.5;-0.0010
706.0;-0.0011
706.5;-0.0010
707.0;-0.0011
707.5;-0.0011
708.0;-0.0010
708.5;-0.0011
709.0;-0.0011
709.5;-0.0011
710.0;-0.0012
710.5;-0.0011
711.0;-0.0011
711.5;-0.0011
712.0;-0.0011
712.5;-0.0011
713.0;-0.0012
713.5;-0.0011
714.0;-0.0012
714.5;-0.0012
715.0;-0.0012
715.5;-0.0011
716.0;-0.0012
716.5;-0.0011
717.0;-0.0012
717.5;-0.0012
718.0;-0.0012
718.5;-0.0013
719.0;-0.0014
719.5;-0.0013
720.0;-0.0013
720.5;-0.0012
721.0;-0.0013
721.5;-0.0013
722.0;-0.0013
722.5;-0.0013
723.0;-0.0013
723.5;-0.0013
724.0;-0.0013
724.5;-0.0013
725.0;-0.0013
725.5;-0.0014
726.0;-0.0013
726.5;-0.0013
727.0;-0.0013
727.5;-0.0013
728.0;-0.0013
728.5;-0.0013
729.0;-0.0014
729.5;-0.0013
730.0;-0.0012
730.5;-0.0013
731.0;-0.0014
731.5;-0.0014
732.0;-0.0014
732.5;-0.0013
733.0;-0.0012
733.5;-0.0012
734.0;-0.0013
734.5;-0.0013
735.0;-0.0014
735.5;-0.0013
736.0;-0.0015
736.5;-0.0014
737.0;-0.0013
737.5;-0.0014
738.0;-0.0013
738.5;-0.0014
739.0;-0.0015
739.5;-0.0014
740.0;-0.0014
740.5;-0.0013
741.0;-0.0013
741.5;-0.0014
742.0;-0.0014
742.5;-0.0014
743.0;-0.0014
743.5;-0.0014
744.0;-0.0013
744.5;-0.0014
745.0;-0.0013
745.5;-0.0014
746.0;-0.0013
746.5;-0.0013
747.0;-0.0013
747.5;-0.0013
748.0;-0.0013
748.5;-0.0014
749.0;-0.0013
749.5;-0.0013
750.0;-0.0013
750.5;-0.0013
751.0;-0.0014
751.5;-0.0013
752.0;-0.0013
752.5;-0.0014
753.0;-0.0013
753.5;-0.0013
754.0;-0.0013
754.5;-0.0013
755.0;-0.0013
755.5;-0.0014
756.0;-0.0014
756.5;-0.0014
757.0;-0.0014
757.5;-0.0014
758.0;-0.0013
758.5;-0.0013
759.0;-0.0013
759.5;-0.0012
760.0;-0.0013
760.5;-0.0014
761.0;-0.0013
761.5;-0.0013
762.0;-0.0014
762.5;-0.0012
763.0;-0.0014
763.5;-0.0012
764.0;-0.0014
764.5;-0.0013
765.0;-0.0014
765.5;-0.0013
766.0;-0.0013
766.5;-0.0013
767.0;-0.0013
767.5;-0.0014
768.0;-0.0013
768.5;-0.0013
769.0;-0.0013
769.5;-0.0012
770.0;-0.0013
770.5;-0.0013
771.0;-0.0012
771.5;-0.0013
772.0;-0.0013
772.5;-0.0013
773.0;-0.0013
773.5;-0.0013
774.0;-0.0013
774.5;-0.0013
775.0;-0.0013
775.5;-0.0013
776.0;-0.0013
776.5;-0.0013
777.0;-0.0013
777.5;-0.0013
778.0;-0.0013
778.5;-0.0012
779.0;-0.0013
779.5;-0.0013
780.0;-0.0013
780.5;-0.0013
781.0;-0.0013
781.5;-0.0012
782.0;-0.0014
782.5;-0.0012
783.0;-0.0012
783.5;-0.0013
784.0;-0.0013
784.5;-0.0012
785.0;-0.0011
785.5;-0.0012
786.0;-0.0013
786.5;-0.0012
787.0;-0.0013
787.5;-0.0012
788.0;-0.0011
788.5;-0.0011
789.0;-0.0011
789.5;-0.0011
790.0;-0.0011
790.5;-0.0011
791.0;-0.0010
791.5;-0.0010
792.0;-0.0011
792.5;-0.0011
793.0;-0.0010
793.5;-0.0010
794.0;-0.0010
794.5;-0.0010
795.0;-0.0010
795.5;-0.0010
796.0;-0.0010
796.5;-0.0009
797.0;-0.0010
797.5;-0.0009
798.0;-0.0010
798.5;-0.0009
799.0;-0.0010
799.5;-0.0009
800.0;-0.0009
800.5;-0.0008
801.0;-0.0008
801.5;-0.0009
802.0;-0.0009
802.5;-0.0009
803.0;-0.0009
803.5;-0.0009
804.0;-0.0008
804.5;-0.0009
805.0;-0.0009
805.5;-0.0008
806.0;-0.0009
806.5;-0.0008
807.0;-0.0008
807.5;-0.0008
808.0;-0.0008
808.5;-0.0008
809.0;-0.0008
809.5;-0.0008
810.0;-0.0008
810.5;-0.0007
811.0;-0.0008
811.5;-0.0008
812.0;-0.0007
812.5;-0.0008
813.0;-0.0008
813.5;-0.0009
814.0;-0.0008
814.5;-0.0008
815.0;-0.0007
815.5;-0.0007
816.0;-0.0008
816.5;-0.0008
817.0;-0.0007
817.5;-0.0008
818.0;-0.0008
818.5;-0.0008
819.0;-0.0008
819.5;-0.0008
820.0;-0.0007
820.5;-0.0008
821.0;-0.0008
821.5;-0.0007
822.0;-0.0007
822.5;-0.0008
823.0;-0.0008
823.5;-0.0008
824.0;-0.0009
824.5;-0.0010
825.0;-0.0009
825.5;-0.0010
826.0;-0.0010
826.5;-0.0010
827.0;-0.0010
827.5;-0.0010
828.0;-0.0011
828.5;-0.0011
829.0;-0.0011
829.5;-0.0010
830.0;-0.0011
830.5;-0.0010
831.0;-0.0010
831.5;-0.0009
832.0;-0.0010
832.5;-0.0009
833.0;-0.0009
833.5;-0.0009
834.0;-0.0009
834.5;-0.0009
835.0;-0.0008
835.5;-0.0008
836.0;-0.0007
836.5;-0.0008
837.0;-0.0007
837.5;-0.0007
838.0;-0.0006
838.5;-0.0006
839.0;-0.0007
839.5;-0.0006
840.0;-0.0006
840.5;-0.0005
841.0;-0.0006
841.5;-0.0006
842.0;-0.0006
842.5;-0.0006
843.0;-0.0007
843.5;-0.0006
844.0;-0.0006
844.5;-0.0006
845.0;-0.0006
845.5;-0.0007
846.0;-0.0007
846.5;-0.0007
847.0;-0.0006
847.5;-0.0007
848.0;-0.0006
848.5;-0.0007
849.0;-0.0007
849.5;-0.0006
850.0;-0.0006
850.5;-0.0007
851.0;-0.0006
851.5;-0.0007
852.0;-0.0007
852.5;-0.0006
853.0;-0.0007
853.5;-0.0006
854.0;-0.0007
854.5;-0.0006
855.0;-0.0007
855.5;-0.0006
856.0;-0.0007
856.5;-0.0006
857.0;-0.0007
857.5;-0.0007
858.0;-0.0007
858.5;-0.0006
859.0;-0.0006
859.5;-0.0007
860.0;-0.0006
860.5;-0.0007
861.0;-0.0006
861.5;-0.0006
862.0;-0.0007
862.5;-0.0006
863.0;-0.0007
863.5;-0.0007
864.0;-0.0007
864.5;-0.0006
865.0;-0.0007
865.5;-0.0007
866.0;-0.0007
866.5;-0.0007
867.0;-0.0007
867.5;-0.0007
868.0;-0.0007
868.5;-0.0007
869.0;-0.0006
869.5;-0.0007
870.0;-0.0007
870.5;-0.0006
871.0;-0.0007
871.5;-0.0007
872.0;-0.0007
872.5;-0.0007
873.0;-0.0007
873.5;-0.0007
874.0;-0.0007
874.5;-0.0007
875.0;-0.0007
875.5;-0.0007
876.0;-0.0007
876.5;-0.0007
877.0;-0.0007
877.5;-0.0007
878.0;-0.0007
878.5;-0.0008
879.0;-0.0007
879.5;-0.0007
880.0;-0.0008
880.5;-0.0007
881.0;-0.0007
881.5;-0.0006
882.0;-0.0007
882.5;-0.0007
883.0;-0.0008
883.5;-0.0007
884.0;-0.0007
884.5;-0.0007
885.0;-0.0007
885.5;-0.0007
886.0;-0.0007
886.5;-0.0007
887.0;-0.0008
887.5;-0.0006
888.0;-0.0007
888.5;-0.0008
889.0;-0.0007
889.5;-0.0008
890.0;-0.0007
890.5;-0.0008
891.0;-0.0007
891.5;-0.0008
892.0;-0.0008
892.5;-0.0008
893.0;-0.0007
893.5;-0.0008
894.0;-0.0008
894.5;-0.0008
895.0;-0.0008
895.5;-0.0008
896.0;-0.0008
896.5;-0.0008
897.0;-0.0008
897.5;-0.0007
898.0;-0.0008
898.5;-0.0008
899.0;-0.0007
899.5;-0.0008
900.0;-0.0008
900.5;-0.0008
901.0;-0.0008
901.5;-0.0009
902.0;-0.0009
902.5;-0.0009
903.0;-0.0008
903.5;-0.0008
904.0;-0.0008
904.5;-0.0008
905.0;-0.0008
905.5;-0.0008
906.0;-0.0009
906.5;-0.0008
907.0;-0.0008
907.5;-0.0008
908.0;-0.0009
908.5;-0.0008
909.0;-0.0009
909.5;-0.0008
910.0;-0.0009
910.5;-0.0008
911.0;-0.0008
911.5;-0.0008
912.0;-0.0009
912.5;-0.0008
913.0;-0.0009
913.5;-0.0008
914.0;-0.0008
914.5;-0.0009
915.0;-0.0009
915.5;-0.0008
916.0;-0.0009
916.5;-0.0009
917.0;-0.0008
917.5;-0.0008
918.0;-0.0008
918.5;-0.0009
919.0;-0.0009
919.5;-0.0008
920.0;-0.0008
920.5;-0.0007
921.0;-0.0008
921.5;-0.0008
922.0;-0.0009
922.5;-0.0008
923.0;-0.0008
923.5;-0.0008
924.0;-0.0008
924.5;-0.0008
925.0;-0.0009
925.5;-0.0008
926.0;-0.0008
926.5;-0.0009
927.0;-0.0008
927.5;-0.0008
928.0;-0.0008
928.5;-0.0008
929.0;-0.0008
929.5;-0.0008
930.0;-0.0008
930.5;-0.0008
931.0;-0.0008
931.5;-0.0007
932.0;-0.0007
932.5;-0.0008
933.0;-0.0008
933.5;-0.0008
934.0;-0.0008
934.5;-0.0008
935.0;-0.0008
935.5;-0.0008
936.0;-0.0007
936.5;-0.0007
937.0;-0.0007
937.5;-0.0007
938.0;-0.0007
938.5;-0.0007
939.0;-0.0006
939.5;-0.0006
940.0;-0.0006
940.5;-0.0006
941.0;-0.0006
941.5;-0.0006
942.0;-0.0006
942.5;-0.0006
943.0;-0.0005
943.5;-0.0005
944.0;-0.0005
944.5;-0.0005
945.0;-0.0005
945.5;-0.0005
946.0;-0.0005
946.5;-0.0005
947.0;-0.0004
947.5;-0.0005
948.0;-0.0004
948.5;-0.0004
949.0;-0.0004
949.5;-0.0003
950.0;-0.0003
950.5;-0.0003
951.0;-0.0003
951.5;-0.0003
952.0;-0.0002
952.5;-0.0002
953.0;-0.0001
953.5;0.0000
954.0;-0.0002
954.5;-0.0001
955.0;-0.0001
955.5;0.0000
956.0;0.0000
956.5;0.0000
957.0;0.0001
957.5;0.0002
958.0;0.0002
958.5;0.0002
959.0;0.0002
959.5;0.0002
960.0;0.0002
960.5;0.0003
961.0;0.0003
961.5;0.0003
962.0;0.0003
962.5;0.0003
963.0;0.0004
963.5;0.0003
964.0;0.0004
964.5;0.0005
965.0;0.0004
965.5;0.0004
966.0;0.0005
966.5;0.0005
967.0;0.0004
967.5;0.0005
968.0;0.0004
968.5;0.0005
969.0;0.0006
969.5;0.0006
970.0;0.0006
970.5;0.0006
971.0;0.0007
971.5;0.0007
972.0;0.0007
972.5;0.0007
973.0;0.0007
973.5;0.0008
974.0;0.0008
974.5;0.0008
975.0;0.0008
975.5;0.0008
976.0;0.0009
976.5;0.0009
977.0;0.0010
977.5;0.0010
978.0;0.0010
978.5;0.0011
979.0;0.0011
979.5;0.0011
980.0;0.0011
980.5;0.0011
981.0;0.0012
981.5;0.0013
982.0;0.0013
982.5;0.0013
983.0;0.0014
983.5;0.0013
984.0;0.0014
984.5;0.0014
985.0;0.0015
985.5;0.0015
986.0;0.0015
986.5;0.0015
987.0;0.0016
987.5;0.0016
988.0;0.0016
988.5;0.0017
989.0;0.0017
989.5;0.0018
990.0;0.0017
990.5;0.0019
991.0;0.0019
991.5;0.0019
992.0;0.0019
992.5;0.0019
993.0;0.0020
993.5;0.0020
994.0;0.0021
994.5;0.0023
995.0;0.0021
995.5;0.0022
996.0;0.0022
996.5;0.0022
997.0;0.0023
997.5;0.0023
998.0;0.0024
998.5;0.0024
999.0;0.0025
999.5;0.0025
1000.0;0.0026
1000.5;0.0026
1001.0;0.0026
1001.5;0.0028
1002.0;0.0027
1002.5;0.0028
1003.0;0.0029
1003.5;0.0028
1004.0;0.0029
1004.5;0.0030
1005.0;0.0031
1005.5;0.0031
1006.0;0.0032
1006.5;0.0033
1007.0;0.0032
1007.5;0.0033
1008.0;0.0034
1008.5;0.0034
1009.0;0.0035
1009.5;0.0035
1010.0;0.0036
1010.5;0.0037
1011.0;0.0037
1011.5;0.0038
1012.0;0.0039
1012.5;0.0040
1013.0;0.0040
1013.5;0.0041
1014.0;0.0041
1014.5;0.0042
1015.0;0.0043
1015.5;0.0044
1016.0;0.0044
1016.5;0.0045
1017.0;0.0046
1017.5;0.0047
1018.0;0.0047
1018.5;0.0048
1019.0;0.0049
1019.5;0.0050
1020.0;0.0050
1020.5;0.0051
1021.0;0.0053
1021.5;0.0055
1022.0;0.0055
1022.5;0.0056
1023.0;0.0056
1023.5;0.0058
1024.0;0.0058
1024.5;0.0060
1025.0;0.0060
1025.5;0.0061
1026.0;0.0062
1026.5;0.0063
1027.0;0.0064
1027.5;0.0065
1028.0;0.0065
1028.5;0.0067
1029.0;0.0068
1029.5;0.0068
1030.0;0.0070
1030.5;0.0072
1031.0;0.0073
1031.5;0.0072
1032.0;0.0074
1032.5;0.0075
1033.0;0.0077
1033.5;0.0077
1034.0;0.0078
1034.5;0.0080
1035.0;0.0080
1035.5;0.0083
1036.0;0.0083
1036.5;0.0084
1037.0;0.0086
1037.5;0.0088
1038.0;0.0089
1038.5;0.0090
1039.0;0.0092
1039.5;0.0093
1040.0;0.0094
1040.5;0.0094
1041.0;0.0095
1041.5;0.0097
1042.0;0.0100
1042.5;0.0099
1043.0;0.0101
1043.5;0.0103
1044.0;0.0103
1044.5;0.0105
1045.0;0.0107
1045.5;0.0108
1046.0;0.0108
1046.5;0.0110
1047.0;0.0111
1047.5;0.0112
1048.0;0.0113
1048.5;0.0115
1049.0;0.0115
1049.5;0.0118
1050.0;0.0119
1050.5;0.0120
1051.0;0.0122
1051.5;0.0122
1052.0;0.0125
1052.5;0.0126
1053.0;0.0126
1053.5;0.0129
1054.0;0.0128
1054.5;0.0130
1055.0;0.0133
1055.5;0.0135
1056.0;0.0137
1056.5;0.0140
1057.0;0.0140
1057.5;0.0146
1058.0;0.0149
1058.5;0.0152
1059.0;0.0155
1059.5;0.0156
1060.0;0.0158
1060.5;0.0160
1061.0;0.0160
1061.5;0.0160
1062.0;0.0159
1062.5;0.0155
1063.0;0.0155
1063.5;0.0152
1064.0;0.0150
1064.5;0.0147
1065.0;0.0147
1065.5;0.0144
1066.0;0.0145
1066.5;0.0144
1067.0;0.0143
1067.5;0.0143
1068.0;0.0143
1068.5;0.0143
1069.0;0.0145
1069.5;0.0144
1070.0;0.0144
1070.5;0.0145
1071.0;0.0146
1071.5;0.0146
1072.0;0.0148
1072.5;0.0147
1073.0;0.0150
1073.5;0.0150
1074.0;0.0149
1074.5;0.0151
1075.0;0.0152
1075.5;0.0152
1076.0;0.0151
1076.5;0.0152
1077.0;0.0154
1077.5;0.0153
1078.0;0.0155
1078.5;0.0155
1079.0;0.0157
1079.5;0.0156
1080.0;0.0158
1080.5;0.0158
1081.0;0.0157
1081.5;0.0160
1082.0;0.0157
1082.5;0.0161
1083.0;0.0161
1083.5;0.0160
1084.0;0.0162
1084.5;0.0158
1085.0;0.0163
1085.5;0.0162
1086.0;0.0163
1086.5;0.0163
1087.0;0.0162
1087.5;0.0164
1088.0;0.0168
1088.5;0.0167
1089.0;0.0166
1089.5;0.0168
1090.0;0.0169
1090.5;0.0169
1091.0;0.0171
1091.5;0.0166
1092.0;0.0171
1092.5;0.0173
1093.0;0.0174
1093.5;0.0173
1094.0;0.0175
1094.5;0.0171
1095.0;0.0179
1095.5;0.0177
1096.0;0.0176
1096.5;0.0176
1097.0;0.0177
1097.5;0.0179
1098.0;0.0175
1098.5;0.0175
1099.0;0.0175
1099.5;0.0177
1100.0;0.0184
