[nm];[A];
;Sample 1;
190.0;0.2550
190.5;0.0272
191.0;0.1873
191.5;0.1352
192.0;0.1553
192.5;-0.0443
193.0;0.0347
193.5;0.2275
194.0;0.0431
194.5;-0.0091
195.0;0.0048
195.5;0.1205
196.0;-0.0842
196.5;0.0115
197.0;0.0347
197.5;-0.0034
198.0;0.0041
198.5;0.0656
199.0;0.0497
199.5;0.0693
200.0;0.0868
200.5;0.0881
201.0;0.0904
201.5;0.0921
202.0;0.0885
202.5;0.0824
203.0;0.0784
203.5;0.0792
204.0;0.0778
204.5;0.0725
205.0;0.0713
205.5;0.0686
206.0;0.0674
206.5;0.0660
207.0;0.0643
207.5;0.0639
208.0;0.0628
208.5;0.0623
209.0;0.0626
209.5;0.0636
210.0;0.0650
210.5;0.0664
211.0;0.0684
211.5;0.0701
212.0;0.0728
212.5;0.0752
213.0;0.0794
213.5;0.0836
214.0;0.0885
214.5;0.0929
215.0;0.0965
215.5;0.1000
216.0;0.1033
216.5;0.1063
217.0;0.1094
217.5;0.1132
218.0;0.1171
218.5;0.1214
219.0;0.1256
219.5;0.1292
220.0;0.1322
220.5;0.1350
221.0;0.1374
221.5;0.1392
222.0;0.1407
222.5;0.1420
223.0;0.1429
223.5;0.1439
224.0;0.1446
224.5;0.1446
225.0;0.1448
225.5;0.1444
226.0;0.1443
226.5;0.1431
227.0;0.1424
227.5;0.1415
228.0;0.1404
228.5;0.1393
229.0;0.1380
229.5;0.1371
230.0;0.1356
230.5;0.1348
231.0;0.1336
231.5;0.1327
232.0;0.1316
232.5;0.1306
233.0;0.1300
233.5;0.1298
234.0;0.1293
234.5;0.1292
235.0;0.1292
235.5;0.1296
236.0;0.1303
236.5;0.1305
237.0;0.1309
237.5;0.1312
238.0;0.1310
238.5;0.1302
239.0;0.1292
239.5;0.1276
240.0;0.1252
240.5;0.1227
241.0;0.1199
241.5;0.1178
242.0;0.1156
242.5;0.1138
243.0;0.1121
243.5;0.1111
244.0;0.1106
244.5;0.1107
245.0;0.1110
245.5;0.1115
246.0;0.1130
246.5;0.1143
247.0;0.1162
247.5;0.1185
248.0;0.1211
248.5;0.1242
249.0;0.1272
249.5;0.1299
250.0;0.1330
250.5;0.1360
251.0;0.1385
251.5;0.1412
252.0;0.1435
252.5;0.1450
253.0;0.1473
253.5;0.1486
254.0;0.1502
254.5;0.1511
255.0;0.1522
255.5;0.1535
256.0;0.1538
256.5;0.1549
257.0;0.1560
257.5;0.1572
258.0;0.1573
258.5;0.1582
259.0;0.1580
259.5;0.1570
260.0;0.1559
260.5;0.1540
261.0;0.1517
261.5;0.1487
262.0;0.1451
262.5;0.1410
263.0;0.1365
263.5;0.1316
264.0;0.1266
264.5;0.1217
265.0;0.1158
265.5;0.1113
266.0;0.1062
266.5;0.1018
267.0;0.0975
267.5;0.0940
268.0;0.0898
268.5;0.0870
269.0;0.0838
269.5;0.0814
270.0;0.0800
270.5;0.0777
271.0;0.0770
271.5;0.0756
272.0;0.0751
272.5;0.0744
273.0;0.0741
273.5;0.0736
274.0;0.0734
274.5;0.0736
275.0;0.0727
275.5;0.0738
276.0;0.0734
276.5;0.0736
277.0;0.0739
277.5;0.0730
278.0;0.0733
278.5;0.0737
279.0;0.0738
279.5;0.0735
280.0;0.0732
280.5;0.0733
281.0;0.0744
281.5;0.0734
282.0;0.0733
282.5;0.0742
283.0;0.0741
283.5;0.0743
284.0;0.0733
284.5;0.0737
285.0;0.0731
285.5;0.0731
286.0;0.0731
286.5;0.0731
287.0;0.0726
287.5;0.0719
288.0;0.0715
288.5;0.0714
289.0;0.0714
289.5;0.0709
290.0;0.0706
290.5;0.0709
291.0;0.0711
291.5;0.0701
292.0;0.0702
292.5;0.0693
293.0;0.0701
293.5;0.0698
294.0;0.0706
294.5;0.0700
295.0;0.0702
295.5;0.0701
296.0;0.0697
296.5;0.0704
297.0;0.0710
297.5;0.0715
298.0;0.0714
298.5;0.0723
299.0;0.0712
299.5;0.0725
300.0;0.0727
300.5;0.0730
301.0;0.0731
301.5;0.0737
302.0;0.0734
302.5;0.0748
303.0;0.0749
303.5;0.0736
304.0;0.0755
304.5;0.0756
305.0;0.0760
305.5;0.0754
306.0;0.0753
306.5;0.0754
307.0;0.0743
307.5;0.0746
308.0;0.0734
308.5;0.0708
309.0;0.0707
309.5;0.0680
310.0;0.0656
310.5;0.0633
311.0;0.0623
311.5;0.0593
312.0;0.0573
312.5;0.0545
313.0;0.0514
313.5;0.0487
314.0;0.0450
314.5;0.0439
315.0;0.0398
315.5;0.0392
316.0;0.0346
316.5;0.0332
317.0;0.0296
317.5;0.0289
318.0;0.0264
318.5;0.0245
319.0;0.0228
319.5;0.0224
320.0;0.0192
320.5;0.0194
321.0;0.0194
321.5;0.0179
322.0;0.0186
322.5;0.0155
323.0;0.0164
323.5;0.0142
324.0;0.0142
324.5;0.0141
325.0;0.0110
325.5;0.0135
326.0;0.0123
326.5;0.0124
327.0;0.0124
327.5;0.0118
328.0;0.0123
328.5;0.0119
329.0;0.0124
329.5;0.0140
330.0;0.0146
330.5;0.0147
331.0;0.0143
331.5;0.0161
332.0;0.0160
332.5;0.0168
333.0;0.0168
333.5;0.0178
334.0;0.0192
334.5;0.0197
335.0;0.0204
335.5;0.0214
336.0;0.0215
336.5;0.0233
337.0;0.0233
337.5;0.0237
338.0;0.0253
338.5;0.0263
339.0;0.0265
339.5;0.0260
340.0;0.0269
340.5;0.0275
341.0;0.0282
341.5;0.0277
342.0;0.0290
342.5;0.0297
343.0;0.0292
343.5;0.0307
344.0;0.0312
344.5;0.0316
345.0;0.0325
345.5;0.0333
346.0;0.0340
346.5;0.0352
347.0;0.0361
347.5;0.0361
348.0;0.0379
348.5;0.0390
349.0;0.0404
349.5;0.0416
350.0;0.0436
350.5;0.0443
351.0;0.0446
351.5;0.0460
352.0;0.0470
352.5;0.0481
353.0;0.0487
353.5;0.0496
354.0;0.0496
354.5;0.0492
355.0;0.0490
355.5;0.0489
356.0;0.0485
356.5;0.0474
357.0;0.0476
357.5;0.0477
358.0;0.0452
358.5;0.0438
359.0;0.0433
359.5;0.0422
360.0;0.0405
360.5;0.0395
361.0;0.0379
361.5;0.0360
362.0;0.0357
362.5;0.0343
363.0;0.0318
363.5;0.0307
364.0;0.0297
364.5;0.0277
365.0;0.0267
365.5;0.0256
366.0;0.0239
366.5;0.0242
367.0;0.0225
367.5;0.0209
368.0;0.0206
368.5;0.0198
369.0;0.0187
369.5;0.0184
370.0;0.0169
370.5;0.0164
371.0;0.0150
371.5;0.0141
372.0;0.0149
372.5;0.0142
373.0;0.0133
373.5;0.0130
374.0;0.0132
374.5;0.0126
375.0;0.0121
375.5;0.0126
376.0;0.0123
376.5;0.0116
377.0;0.0115
377.5;0.0115
378.0;0.0113
378.5;0.0119
379.0;0.0116
379.5;0.0115
380.0;0.0120
380.5;0.0110
381.0;0.0117
381.5;0.0115
382.0;0.0122
382.5;0.0121
383.0;0.0121
383.5;0.0123
384.0;0.0123
384.5;0.0125
385.0;0.0129
385.5;0.0129
386.0;0.0126
386.5;0.0133
387.0;0.0133
387.5;0.0129
388.0;0.0135
388.5;0.0140
389.0;0.0142
389.5;0.0140
390.0;0.0150
390.5;0.0148
391.0;0.0146
391.5;0.0147
392.0;0.0155
392.5;0.0150
393.0;0.0150
393.5;0.0156
394.0;0.0156
394.5;0.0151
395.0;0.0153
395.5;0.0154
396.0;0.0153
396.5;0.0156
397.0;0.0157
397.5;0.0155
398.0;0.0152
398.5;0.0152
399.0;0.0153
399.5;0.0149
400.0;0.0152
400.5;0.0150
401.0;0.0150
401.5;0.0151
402.0;0.0149
402.5;0.0144
403.0;0.0150
403.5;0.0151
404.0;0.0148
404.5;0.0147
405.0;0.0143
405.5;0.0146
406.0;0.0141
406.5;0.0142
407.0;0.0144
407.5;0.0141
408.0;0.0144
408.5;0.0143
409.0;0.0140
409.5;0.0142
410.0;0.0136
410.5;0.0141
411.0;0.0138
411.5;0.0139
412.0;0.0138
412.5;0.0136
413.0;0.0137
413.5;0.0137
414.0;0.0139
414.5;0.0135
415.0;0.0135
415.5;0.0130
416.0;0.0133
416.5;0.0132
417.0;0.0134
417.5;0.0130
418.0;0.0133
418.5;0.0130
419.0;0.0126
419.5;0.0126
420.0;0.0122
420.5;0.0121
421.0;0.0122
421.5;0.0119
422.0;0.0114
422.5;0.0113
423.0;0.0109
423.5;0.0109
424.0;0.0106
424.5;0.0104
425.0;0.0102
425.5;0.0098
426.0;0.0094
426.5;0.0092
427.0;0.0090
427.5;0.0085
428.0;0.0089
428.5;0.0084
429.0;0.0081
429.5;0.0076
430.0;0.0073
430.5;0.0069
431.0;0.0071
431.5;0.0066
432.0;0.0065
432.5;0.0060
433.0;0.0059
433.5;0.0054
434.0;0.0056
434.5;0.0054
435.0;0.0048
435.5;0.0051
436.0;0.0048
436.5;0.0044
437.0;0.0040
437.5;0.0040
438.0;0.0042
438.5;0.0040
439.0;0.0040
439.5;0.0041
440.0;0.0040
440.5;0.0035
441.0;0.0037
441.5;0.0038
442.0;0.0039
442.5;0.0037
443.0;0.0037
443.5;0.0036
444.0;0.0038
444.5;0.0042
445.0;0.0039
445.5;0.0042
446.0;0.0043
446.5;0.0040
447.0;0.0044
447.5;0.0042
448.0;0.0047
448.5;0.0043
449.0;0.0046
449.5;0.0047
450.0;0.0049
450.5;0.0051
451.0;0.0054
451.5;0.0055
452.0;0.0057
452.5;0.0060
453.0;0.0059
453.5;0.0061
454.0;0.0066
454.5;0.0067
455.0;0.0074
455.5;0.0074
456.0;0.0075
456.5;0.0081
457.0;0.0081
457.5;0.0084
458.0;0.0091
458.5;0.0092
459.0;0.0096
459.5;0.0104
460.0;0.0106
460.5;0.0111
461.0;0.0115
461.5;0.0117
462.0;0.0121
462.5;0.0130
463.0;0.0134
463.5;0.0141
464.0;0.0146
464.5;0.0149
465.0;0.0154
465.5;0.0158
466.0;0.0164
466.5;0.0174
467.0;0.0179
467.5;0.0183
468.0;0.0190
468.5;0.0193
469.0;0.0200
469.5;0.0208
470.0;0.0218
470.5;0.0227
471.0;0.0231
471.5;0.0238
472.0;0.0245
472.5;0.0252
473.0;0.0259
473.5;0.0266
474.0;0.0272
474.5;0.0279
475.0;0.0286
475.5;0.0294
476.0;0.0300
476.5;0.0307
477.0;0.0316
477.5;0.0323
478.0;0.0332
478.5;0.0340
479.0;0.0347
479.5;0.0357
480.0;0.0365
480.5;0.0372
481.0;0.0382
481.5;0.0392
482.0;0.0402
482.5;0.0412
483.0;0.0424
483.5;0.0435
484.0;0.0448
484.5;0.0461
485.0;0.0474
485.5;0.0490
486.0;0.0503
486.5;0.0519
487.0;0.0535
487.5;0.0551
488.0;0.0568
488.5;0.0586
489.0;0.0606
489.5;0.0626
490.0;0.0647
490.5;0.0669
491.0;0.0692
491.5;0.0714
492.0;0.0738
492.5;0.0763
493.0;0.0790
493.5;0.0815
494.0;0.0842
494.5;0.0868
495.0;0.0897
495.5;0.0925
496.0;0.0955
496.5;0.0985
497.0;0.1014
497.5;0.1045
498.0;0.1076
498.5;0.1104
499.0;0.1137
499.5;0.1169
500.0;0.1198
500.5;0.1227
501.0;0.1259
501.5;0.1289
502.0;0.1317
502.5;0.1346
503.0;0.1375
503.5;0.1402
504.0;0.1430
504.5;0.1455
505.0;0.1481
505.5;0.1506
506.0;0.1531
506.5;0.1553
507.0;0.1576
507.5;0.1597
508.0;0.1618
508.5;0.1636
509.0;0.1654
509.5;0.1673
510.0;0.1690
510.5;0.1707
511.0;0.1722
511.5;0.1738
512.0;0.1752
512.5;0.1768
513.0;0.1783
513.5;0.1797
514.0;0.1812
514.5;0.1827
515.0;0.1842
515.5;0.1858
516.0;0.1876
516.5;0.1894
517.0;0.1913
517.5;0.1934
518.0;0.1956
518.5;0.1980
519.0;0.2006
519.5;0.2035
520.0;0.2064
520.5;0.2097
521.0;0.2131
521.5;0.2168
522.0;0.2206
522.5;0.2250
523.0;0.2294
523.5;0.2342
524.0;0.2391
524.5;0.2444
525.0;0.2500
525.5;0.2562
526.0;0.2626
526.5;0.2692
527.0;0.2761
527.5;0.2835
528.0;0.2908
528.5;0.2987
529.0;0.3066
529.5;0.3150
530.0;0.3235
530.5;0.3325
531.0;0.3416
531.5;0.3510
532.0;0.3605
532.5;0.3704
533.0;0.3803
533.5;0.3902
534.0;0.4003
534.5;0.4104
535.0;0.4206
535.5;0.4305
536.0;0.4405
536.5;0.4502
537.0;0.4598
537.5;0.4691
538.0;0.4782
538.5;0.4871
539.0;0.4956
539.5;0.5038
540.0;0.5117
540.5;0.5191
541.0;0.5260
541.5;0.5322
542.0;0.5378
542.5;0.5428
543.0;0.5471
543.5;0.5509
544.0;0.5538
544.5;0.5560
545.0;0.5576
545.5;0.5584
546.0;0.5583
546.5;0.5573
547.0;0.5555
547.5;0.5529
548.0;0.5494
548.5;0.5451
549.0;0.5399
549.5;0.5341
550.0;0.5275
550.5;0.5201
551.0;0.5122
551.5;0.5034
552.0;0.4941
552.5;0.4841
553.0;0.4737
553.5;0.4625
554.0;0.4509
554.5;0.4387
555.0;0.4262
555.5;0.4134
556.0;0.4005
556.5;0.3874
557.0;0.3741
557.5;0.3609
558.0;0.3474
558.5;0.3339
559.0;0.3200
559.5;0.3064
560.0;0.2927
560.5;0.2793
561.0;0.2659
561.5;0.2528
562.0;0.2401
562.5;0.2276
563.0;0.2156
563.5;0.2038
564.0;0.1924
564.5;0.1815
565.0;0.1709
565.5;0.1608
566.0;0.1510
566.5;0.1415
567.0;0.1326
567.5;0.1239
568.0;0.1158
568.5;0.1080
569.0;0.1005
569.5;0.0936
570.0;0.0871
570.5;0.0809
571.0;0.0751
571.5;0.0696
572.0;0.0643
572.5;0.0594
573.0;0.0548
573.5;0.0506
574.0;0.0466
574.5;0.0428
575.0;0.0393
575.5;0.0360
576.0;0.0331
576.5;0.0303
577.0;0.0277
577.5;0.0254
578.0;0.0232
578.5;0.0211
579.0;0.0192
579.5;0.0177
580.0;0.0160
580.5;0.0145
581.0;0.0132
581.5;0.0119
582.0;0.0109
582.5;0.0098
583.0;0.0088
583.5;0.0079
584.0;0.0071
584.5;0.0064
585.0;0.0057
585.5;0.0050
586.0;0.0044
586.5;0.0040
587.0;0.0035
587.5;0.0030
588.0;0.0026
588.5;0.0022
589.0;0.0019
589.5;0.0017
590.0;0.0014
590.5;0.0012
591.0;0.0009
591.5;0.0007
592.0;0.0004
592.5;0.0003
593.0;0.0003
593.5;0.0001
594.0;0.0000
594.5;-0.0001
595.0;-0.0002
595.5;-0.0003
596.0;-0.0004
596.5;-0.0005
597.0;-0.0007
597.5;-0.0007
598.0;-0.0007
598.5;-0.0008
599.0;-0.0008
599.5;-0.0007
600.0;-0.0009
600.5;-0.0009
601.0;-0.0009
601.5;-0.0009
602.0;-0.0010
602.5;-0.0010
603.0;-0.0010
603.5;-0.0011
604.0;-0.0010
604.5;-0.0011
605.0;-0.0010
605.5;-0.0011
606.0;-0.0011
606.5;-0.0011
607.0;-0.0011
607.5;-0.0011
608.0;-0.0011
608.5;-0.0010
609.0;-0.0011
609.5;-0.0012
610.0;-0.0011
610.5;-0.0011
611.0;-0.0011
611.5;-0.0011
612.0;-0.0010
612.5;-0.0012
613.0;-0.0011
613.5;-0.0012
614.0;-0.0011
614.5;-0.0012
615.0;-0.0011
615.5;-0.0011
616.0;-0.0012
616.5;-0.0011
617.0;-0.0012
617.5;-0.0012
618.0;-0.0012
618.5;-0.0012
619.0;-0.0012
619.5;-0.0011
620.0;-0.0012
620.5;-0.0012
621.0;-0.0011
621.5;-0.0012
622.0;-0.0013
622.5;-0.0012
623.0;-0.0012
623.5;-0.0013
624.0;-0.0012
624.5;-0.0012
625.0;-0.0013
625.5;-0.0013
626.0;-0.0012
626.5;-0.0013
627.0;-0.0012
627.5;-0.0012
628.0;-0.0013
628.5;-0.0013
629.0;-0.0012
629.5;-0.0013
630.0;-0.0013
630.5;-0.0013
631.0;-0.0013
631.5;-0.0014
632.0;-0.0013
632.5;-0.0012
633.0;-0.0013
633.5;-0.0013
634.0;-0.0013
634.5;-0.0013
635.0;-0.0014
635.5;-0.0013
636.0;-0.0013
636.5;-0.0014
637.0;-0.0012
637.5;-0.0013
638.0;-0.0012
638.5;-0.0013
639.0;-0.0013
639.5;-0.0013
640.0;-0.0013
640.5;-0.0013
641.0;-0.0013
641.5;-0.0014
642.0;-0.0013
642.5;-0.0012
643.0;-0.0013
643.5;-0.0014
644.0;-0.0013
644.5;-0.0014
645.0;-0.0013
645.5;-0.0012
646.0;-0.0013
646.5;-0.0013
647.0;-0.0013
647.5;-0.0013
648.0;-0.0013
648.5;-0.0013
649.0;-0.0012
649.5;-0.0013
650.0;-0.0013
650.5;-0.0013
651.0;-0.0013
651.5;-0.0013
652.0;-0.0013
652.5;-0.0012
653.0;-0.0011
653.5;-0.0012
654.0;-0.0012
654.5;-0.0012
655.0;-0.0012
655.5;-0.0012
656.0;-0.0013
656.5;-0.0012
657.0;-0.0012
657.5;-0.0012
658.0;-0.0012
658.5;-0.0012
659.0;-0.0012
659.5;-0.0012
660.0;-0.0012
660.5;-0.0012
661.0;-0.0012
661.5;-0.0013
662.0;-0.0012
662.5;-0.0012
663.0;-0.0013
663.5;-0.0012
664.0;-0.0012
664.5;-0.0012
665.0;-0.0012
665.5;-0.0013
666.0;-0.0014
666.5;-0.0013
667.0;-0.0014
667.5;-0.0013
668.0;-0.0013
668.5;-0.0013
669.0;-0.0014
669.5;-0.0014
670.0;-0.0014
670.5;-0.0013
671.0;-0.0015
671.5;-0.0015
672.0;-0.0014
672.5;-0.0015
673.0;-0.0016
673.5;-0.0015
674.0;-0.0016
674.5;-0.0016
675.0;-0.0016
675.5;-0.0016
676.0;-0.0016
676.5;-0.0017
677.0;-0.0016
677.5;-0.0017
678.0;-0.0017
678.5;-0.0017
679.0;-0.0016
679.5;-0.0017
680.0;-0.0017
680.5;-0.0017
681.0;-0.0017
681.5;-0.0017
682.0;-0.0016
682.5;-0.0017
683.0;-0.0017
683.5;-0.0017
684.0;-0.0017
684.5;-0.0017
685.0;-0.0016
685.5;-0.0016
686.0;-0.0017
686.5;-0.0016
687.0;-0.0017
687.5;-0.0016
688.0;-0.0016
688.5;-0.0017
689.0;-0.0017
689.5;-0.0017
690.0;-0.0017
690.5;-0.0016
691.0;-0.0017
691.5;-0.0016
692.0;-0.0017
692.5;-0.0017
693.0;-0.0017
693.5;-0.0017
694.0;-0.0016
694.5;-0.0016
695.0;-0.0016
695.5;-0.0016
696.0;-0.0016
696.5;-0.0017
697.0;-0.0016
697.5;-0.0015
698.0;-0.0015
698.5;-0.0015
699.0;-0.0016
699.5;-0.0016
700.0;-0.0017
700.5;-0.0017
701.0;-0.0016
701.5;-0.0017
702.0;-0.0016
702.5;-0.0016
703.0;-0.0018
703.5;-0.0017
704.0;-0.0017
704.5;-0.0017
705.0;-0.0017
705.5;-0.0016
706.0;-0.0017
706.5;-0.0016
707.0;-0.0017
707.5;-0.0016
708.0;-0.0016
708.5;-0.0016
709.0;-0.0016
709.5;-0.0017
710.0;-0.0016
710.5;-0.0017
711.0;-0.0016
711.5;-0.0015
712.0;-0.0016
712.5;-0.0016
713.0;-0.0016
713.5;-0.0017
714.0;-0.0017
714.5;-0.0017
715.0;-0.0017
715.5;-0.0017
716.0;-0.0017
716.5;-0.0016
717.0;-0.0016
717.5;-0.0017
718.0;-0.0017
718.5;-0.0017
719.0;-0.0017
719.5;-0.0017
720.0;-0.0016
720.5;-0.0017
721.0;-0.0018
721.5;-0.0018
722.0;-0.0018
722.5;-0.0018
723.0;-0.0018
723.5;-0.0017
724.0;-0.0017
724.5;-0.0018
725.0;-0.0017
725.5;-0.0017
726.0;-0.0017
726.5;-0.0018
727.0;-0.0018
727.5;-0.0018
728.0;-0.0018
728.5;-0.0017
729.0;-0.0018
729.5;-0.0017
730.0;-0.0017
730.5;-0.0018
731.0;-0.0018
731.5;-0.0018
732.0;-0.0018
732.5;-0.0017
733.0;-0.0017
733.5;-0.0017
734.0;-0.0018
734.5;-0.0017
735.0;-0.0018
735.5;-0.0018
736.0;-0.0019
736.5;-0.0018
737.0;-0.0019
737.5;-0.0019
738.0;-0.0019
738.5;-0.0018
739.0;-0.0019
739.5;-0.0018
740.0;-0.0019
740.5;-0.0019
741.0;-0.0019
741.5;-0.0019
742.0;-0.0019
742.5;-0.0020
743.0;-0.0018
743.5;-0.0018
744.0;-0.0019
744.5;-0.0019
745.0;-0.0018
745.5;-0.0018
746.0;-0.0018
746.5;-0.0019
747.0;-0.0018
747.5;-0.0019
748.0;-0.0018
748.5;-0.0018
749.0;-0.0019
749.5;-0.0018
750.0;-0.0019
750.5;-0.0018
751.0;-0.0019
751.5;-0.0019
752.0;-0.0018
752.5;-0.0018
753.0;-0.0018
753.5;-0.0017
754.0;-0.0017
754.5;-0.0017
755.0;-0.0018
755.5;-0.0017
756.0;-0.0018
756.5;-0.0017
757.0;-0.0018
757.5;-0.0018
758.0;-0.0017
758.5;-0.0017
759.0;-0.0018
759.5;-0.0017
760.0;-0.0017
760.5;-0.0017
761.0;-0.0017
761.5;-0.0017
762.0;-0.0017
762.5;-0.0017
763.0;-0.0017
763.5;-0.0017
764.0;-0.0017
764.5;-0.0017
765.0;-0.0018
765.5;-0.0017
766.0;-0.0017
766.5;-0.0017
767.0;-0.0018
767.5;-0.0018
768.0;-0.0017
768.5;-0.0017
769.0;-0.0018
769.5;-0.0017
770.0;-0.0016
770.5;-0.0017
771.0;-0.0017
771.5;-0.0017
772.0;-0.0017
772.5;-0.0017
773.0;-0.0018
773.5;-0.0017
774.0;-0.0018
774.5;-0.0017
775.0;-0.0017
775.5;-0.0017
776.0;-0.0017
776.5;-0.0017
777.0;-0.0017
777.5;-0.0017
778.0;-0.0017
778.5;-0.0017
779.0;-0.0018
779.5;-0.0017
780.0;-0.0016
780.5;-0.0018
781.0;-0.0018
781.5;-0.0017
782.0;-0.0017
782.5;-0.0016
783.0;-0.0017
783.5;-0.0016
784.0;-0.0017
784.5;-0.0016
785.0;-0.0016
785.5;-0.0016
786.0;-0.0016
786.5;-0.0016
787.0;-0.0016
787.5;-0.0016
788.0;-0.0015
788.5;-0.0015
789.0;-0.0016
789.5;-0.0016
790.0;-0.0015
790.5;-0.0015
791.0;-0.0015
791.5;-0.0015
792.0;-0.0016
792.5;-0.0016
793.0;-0.0015
793.5;-0.0014
794.0;-0.0014
794.5;-0.0015
795.0;-0.0014
795.5;-0.0014
796.0;-0.0014
796.5;-0.0014
797.0;-0.0014
797.5;-0.0013
798.0;-0.0014
798.5;-0.0014
799.0;-0.0014
799.5;-0.0014
800.0;-0.0013
800.5;-0.0013
801.0;-0.0013
801.5;-0.0013
802.0;-0.0013
802.5;-0.0013
803.0;-0.0013
803.5;-0.0013
804.0;-0.0012
804.5;-0.0013
805.0;-0.0013
805.5;-0.0013
806.0;-0.0013
806.5;-0.0012
807.0;-0.0013
807.5;-0.0012
808.0;-0.0013
808.5;-0.0013
809.0;-0.0012
809.5;-0.0012
810.0;-0.0013
810.5;-0.0012
811.0;-0.0013
811.5;-0.0012
812.0;-0.0013
812.5;-0.0013
813.0;-0.0012
813.5;-0.0012
814.0;-0.0012
814.5;-0.0012
815.0;-0.0011
815.5;-0.0011
816.0;-0.0012
816.5;-0.0012
817.0;-0.0012
817.5;-0.0012
818.0;-0.0012
818.5;-0.0012
819.0;-0.0012
819.5;-0.0012
820.0;-0.0012
820.5;-0.0013
821.0;-0.0013
821.5;-0.0011
822.0;-0.0012
822.5;-0.0013
823.0;-0.0013
823.5;-0.0012
824.0;-0.0013
824.5;-0.0013
825.0;-0.0014
825.5;-0.0013
826.0;-0.0014
826.5;-0.0014
827.0;-0.0013
827.5;-0.0014
828.0;-0.0015
828.5;-0.0015
829.0;-0.0014
829.5;-0.0015
830.0;-0.0015
830.5;-0.0014
831.0;-0.0014
831.5;-0.0014
832.0;-0.0014
832.5;-0.0013
833.0;-0.0014
833.5;-0.0013
834.0;-0.0013
834.5;-0.0012
835.0;-0.0012
835.5;-0.0011
836.0;-0.0011
836.5;-0.0011
837.0;-0.0011
837.5;-0.0011
838.0;-0.0010
838.5;-0.0010
839.0;-0.0010
839.5;-0.0010
840.0;-0.0003
840.5;-0.0009
841.0;-0.0010
841.5;-0.0010
842.0;-0.0010
842.5;-0.0010
843.0;-0.0010
843.5;-0.0010
844.0;-0.0010
844.5;-0.0010
845.0;-0.0010
845.5;-0.0010
846.0;-0.0010
846.5;-0.0011
847.0;-0.0010
847.5;-0.0010
848.0;-0.0010
848.5;-0.0011
849.0;-0.0010
849.5;-0.0010
850.0;-0.0010
850.5;-0.0011
851.0;-0.0010
851.5;-0.0011
852.0;-0.0010
852.5;-0.0010
853.0;-0.0011
853.5;-0.0010
854.0;-0.0011
854.5;-0.0011
855.0;-0.0012
855.5;-0.0010
856.0;-0.0011
856.5;-0.0010
857.0;-0.0010
857.5;-0.0010
858.0;-0.0011
858.5;-0.0010
859.0;-0.0010
859.5;-0.0011
860.0;-0.0010
860.5;-0.0010
861.0;-0.0010
861.5;-0.0009
862.0;-0.0010
862.5;-0.0010
863.0;-0.0011
863.5;-0.0011
864.0;-0.0010
864.5;-0.0011
865.0;-0.0011
865.5;-0.0010
866.0;-0.0010
866.5;-0.0010
867.0;-0.0010
867.5;-0.0010
868.0;-0.0011
868.5;-0.0010
869.0;-0.0010
869.5;-0.0010
870.0;-0.0010
870.5;-0.0010
871.0;-0.0010
871.5;-0.0011
872.0;-0.0010
872.5;-0.0010
873.0;-0.0010
873.5;-0.0011
874.0;-0.0011
874.5;-0.0010
875.0;-0.0010
875.5;-0.0010
876.0;-0.0011
876.5;-0.0010
877.0;-0.0010
877.5;-0.0010
878.0;-0.0011
878.5;-0.0010
879.0;-0.0010
879.5;-0.0010
880.0;-0.0011
880.5;-0.0010
881.0;-0.0010
881.5;-0.0010
882.0;-0.0010
882.5;-0.0010
883.0;-0.0011
883.5;-0.0010
884.0;-0.0009
884.5;-0.0010
885.0;-0.0010
885.5;-0.0010
886.0;-0.0010
886.5;-0.0011
887.0;-0.0011
887.5;-0.0010
888.0;-0.0010
888.5;-0.0010
889.0;-0.0010
889.5;-0.0010
890.0;-0.0010
890.5;-0.0011
891.0;-0.0010
891.5;-0.0010
892.0;-0.0010
892.5;-0.0010
893.0;-0.0009
893.5;-0.0010
894.0;-0.0010
894.5;-0.0010
895.0;-0.0010
895.5;-0.0010
896.0;-0.0010
896.5;-0.0009
897.0;-0.0010
897.5;-0.0010
898.0;-0.0010
898.5;-0.0010
899.0;-0.0009
899.5;-0.0010
900.0;-0.0009
900.5;-0.0010
901.0;-0.0010
901.5;-0.0011
902.0;-0.0010
902.5;-0.0010
903.0;-0.0010
903.5;-0.0011
904.0;-0.0010
904.5;-0.0010
905.0;-0.0010
905.5;-0.0010
906.0;-0.0010
906.5;-0.0010
907.0;-0.0010
907.5;-0.0011
908.0;-0.0010
908.5;-0.0010
909.0;-0.0010
909.5;-0.0010
910.0;-0.0011
910.5;-0.0010
911.0;-0.0010
911.5;-0.0010
912.0;-0.0011
912.5;-0.0010
913.0;-0.0010
913.5;-0.0010
914.0;-0.0010
914.5;-0.0011
915.0;-0.0011
915.5;-0.0010
916.0;-0.0010
916.5;-0.0011
917.0;-0.0011
917.5;-0.0010
918.0;-0.0011
918.5;-0.0011
919.0;-0.0011
919.5;-0.0011
920.0;-0.0011
920.5;-0.0011
921.0;-0.0011
921.5;-0.0011
922.0;-0.0011
922.5;-0.0011
923.0;-0.0010
923.5;-0.0011
924.0;-0.0011
924.5;-0.0010
925.0;-0.0011
925.5;-0.0010
926.0;-0.0011
926.5;-0.0011
927.0;-0.0011
927.5;-0.0010
928.0;-0.0011
928.5;-0.0011
929.0;-0.0011
929.5;-0.0010
930.0;-0.0011
930.5;-0.0011
931.0;-0.0010
931.5;-0.0010
932.0;-0.0011
932.5;-0.0010
933.0;-0.0010
933.5;-0.0010
934.0;-0.0011
934.5;-0.0010
935.0;-0.0010
935.5;-0.0011
936.0;-0.0010
936.5;-0.0010
937.0;-0.0010
937.5;-0.0009
938.0;-0.0009
938.5;-0.0010
939.0;-0.0009
939.5;-0.0010
940.0;-0.0010
940.5;-0.0009
941.0;-0.0008
941.5;-0.0009
942.0;-0.0010
942.5;-0.0008
943.0;-0.0009
943.5;-0.0009
944.0;-0.0009
944.5;-0.0008
945.0;-0.0009
945.5;-0.0009
946.0;-0.0008
946.5;-0.0008
947.0;-0.0009
947.5;-0.0008
948.0;-0.0008
948.5;-0.0008
949.0;-0.0008
949.5;-0.0008
950.0;-0.0008
950.5;-0.0008
951.0;-0.0007
951.5;-0.0007
952.0;-0.0007
952.5;-0.0007
953.0;-0.0006
953.5;-0.0007
954.0;-0.0007
954.5;-0.0006
955.0;-0.0006
955.5;-0.0005
956.0;-0.0006
956.5;-0.0006
957.0;-0.0006
957.5;-0.0006
958.0;-0.0006
958.5;-0.0006
959.0;-0.0006
959.5;-0.0005
960.0;-0.0006
960.5;-0.0005
961.0;-0.0006
961.5;-0.0005
962.0;-0.0005
962.5;-0.0005
963.0;-0.0005
963.5;-0.0005
964.0;-0.0005
964.5;-0.0004
965.0;-0.0005
965.5;-0.0005
966.0;-0.0004
966.5;-0.0004
967.0;-0.0004
967.5;-0.0004
968.0;-0.0004
968.5;-0.0004
969.0;-0.0003
969.5;-0.0003
970.0;-0.0003
970.5;-0.0003
971.0;-0.0002
971.5;-0.0003
972.0;-0.0003
972.5;-0.0002
973.0;-0.0002
973.5;-0.0002
974.0;-0.0002
974.5;-0.0002
975.0;-0.0001
975.5;-0.0002
976.0;-0.0001
976.5;-0.0001
977.0;-0.0001
977.5;0.0000
978.0;0.0000
978.5;0.0001
979.0;0.0000
979.5;0.0001
980.0;0.0001
980.5;0.0001
981.0;0.0002
981.5;0.0002
982.0;0.0002
982.5;0.0002
983.0;0.0003
983.5;0.0003
984.0;0.0003
984.5;0.0004
985.0;0.0004
985.5;0.0003
986.0;0.0004
986.5;0.0004
987.0;0.0005
987.5;0.0004
988.0;0.0005
988.5;0.0005
989.0;0.0005
989.5;0.0006
990.0;0.0006
990.5;0.0007
991.0;0.0007
991.5;0.0007
992.0;0.0007
992.5;0.0007
993.0;0.0007
993.5;0.0008
994.0;0.0009
994.5;0.0009
995.0;0.0009
995.5;0.0009
996.0;0.0009
996.5;0.0010
997.0;0.0010
997.5;0.0010
998.0;0.0011
998.5;0.0011
999.0;0.0012
999.5;0.0011
1000.0;0.0012
1000.5;0.0013
1001.0;0.0013
1001.5;0.0014
1002.0;0.0013
1002.5;0.0015
1003.0;0.0015
1003.5;0.0015
1004.0;0.0015
1004.5;0.0017
1005.0;0.0017
1005.5;0.0017
1006.0;0.0018
1006.5;0.0018
1007.0;0.0018
1007.5;0.0019
1008.0;0.0019
1008.5;0.0019
1009.0;0.0019
1009.5;0.0020
1010.0;0.0021
1010.5;0.0021
1011.0;0.0021
1011.5;0.0022
1012.0;0.0023
1012.5;0.0024
1013.0;0.0023
1013.5;0.0024
1014.0;0.0025
1014.5;0.0026
1015.0;0.0026
1015.5;0.0027
1016.0;0.0027
1016.5;0.0028
1017.0;0.0029
1017.5;0.0029
1018.0;0.0030
1018.5;0.0031
1019.0;0.0031
1019.5;0.0031
1020.0;0.0032
1020.5;0.0033
1021.0;0.0034
1021.5;0.0035
1022.0;0.0036
1022.5;0.0037
1023.0;0.0036
1023.5;0.0038
1024.0;0.0038
1024.5;0.0039
1025.0;0.0040
1025.5;0.0040
1026.0;0.0041
1026.5;0.0042
1027.0;0.0042
1027.5;0.0043
1028.0;0.0044
1028.5;0.0045
1029.0;0.0045
1029.5;0.0045
1030.0;0.0047
1030.5;0.0048
1031.0;0.0048
1031.5;0.0048
1032.0;0.0050
1032.5;0.0050
1033.0;0.0050
1033.5;0.0051
1034.0;0.0052
1034.5;0.0054
1035.0;0.0054
1035.5;0.0055
1036.0;0.0056
1036.5;0.0057
1037.0;0.0058
1037.5;0.0060
1038.0;0.0060
1038.5;0.0060
1039.0;0.0063
1039.5;0.0064
1040.0;0.0065
1040.5;0.0065
1041.0;0.0065
1041.5;0.0067
1042.0;0.0068
1042.5;0.0068
1043.0;0.0070
1043.5;0.0069
1044.0;0.0071
1044.5;0.0072
1045.0;0.0073
1045.5;0.0075
1046.0;0.0074
1046.5;0.0077
1047.0;0.0078
1047.5;0.0077
1048.0;0.0078
1048.5;0.0079
1049.0;0.0080
1049.5;0.0082
1050.0;0.0082
1050.5;0.0083
1051.0;0.0084
1051.5;0.0085
1052.0;0.0087
1052.5;0.0087
1053.0;0.0088
1053.5;0.0090
1054.0;0.0089
1054.5;0.0090
1055.0;0.0093
1055.5;0.0094
1056.0;0.0095
1056.5;0.0098
1057.0;0.0099
1057.5;0.0102
1058.0;0.0104
1058.5;0.0107
1059.0;0.0108
1059.5;0.0110
1060.0;0.0110
1060.5;0.0111
1061.0;0.0112
1061.5;0.0111
1062.0;0.0109
1062.5;0.0108
1063.0;0.0107
1063.5;0.0105
1064.0;0.0104
1064.5;0.0102
1065.0;0.0101
1065.5;0.0100
1066.0;0.0100
1066.5;0.0101
1067.0;0.0100
1067.5;0.0100
1068.0;0.0100
1068.5;0.0101
1069.0;0.0101
1069.5;0.0101
1070.0;0.0100
1070.5;0.0101
1071.0;0.0103
1071.5;0.0102
1072.0;0.0105
1072.5;0.0102
1073.0;0.0106
1073.5;0.0104
1074.0;0.0106
1074.5;0.0106
1075.0;0.0106
1075.5;0.0106
1076.0;0.0108
1076.5;0.0108
1077.0;0.0108
1077.5;0.0108
1078.0;0.0108
1078.5;0.0109
1079.0;0.0110
1079.5;0.0110
1080.0;0.0110
1080.5;0.0111
1081.0;0.0110
1081.5;0.0111
1082.0;0.0111
1082.5;0.0113
1083.0;0.0113
1083.5;0.0112
1084.0;0.0114
1084.5;0.0113
1085.0;0.0114
1085.5;0.0115
1086.0;0.0116
1086.5;0.0114
1087.0;0.0116
1087.5;0.0116
1088.0;0.0119
1088.5;0.0116
1089.0;0.0118
1089.5;0.0117
1090.0;0.0120
1090.5;0.0120
1091.0;0.0120
1091.5;0.0119
1092.0;0.0119
1092.5;0.0122
1093.0;0.0122
1093.5;0.0122
1094.0;0.0124
1094.5;0.0123
1095.0;0.0129
1095.5;0.0124
1096.0;0.0126
1096.5;0.0127
1097.0;0.0126
1097.5;0.0126
1098.0;0.0124
1098.5;0.0123
1099.0;0.0128
1099.5;0.0129
1100.0;0.0130
