[nm];[A];
;Sample 1;
190.0;8.0000
191.0;-0.8035
192.0;8.0000
193.0;8.0000
194.0;-4.6351
195.0;1.0292
196.0;8.0000
197.0;-3.9489
198.0;8.0000
199.0;-3.3773
200.0;8.0000
201.0;8.0000
202.0;8.0000
203.0;8.0000
204.0;8.0000
205.0;8.0000
206.0;8.0000
207.0;0.4429
208.0;-0.2345
209.0;8.0000
210.0;8.0000
211.0;8.0000
212.0;8.0000
213.0;8.0000
214.0;8.0000
215.0;0.6346
216.0;-1.0405
217.0;0.3724
218.0;0.5167
219.0;0.8576
220.0;8.0000
221.0;0.6781
222.0;1.1811
223.0;8.0000
224.0;8.0000
225.0;8.0000
226.0;8.0000
227.0;8.0000
228.0;-0.0207
229.0;1.8740
230.0;1.2442
231.0;0.1777
232.0;1.4723
233.0;8.0000
234.0;0.8651
235.0;0.1107
236.0;8.0000
237.0;8.0000
238.0;0.3797
239.0;-0.0431
240.0;0.2188
241.0;0.5229
242.0;0.0575
243.0;0.5394
244.0;8.0000
245.0;-4.2089
246.0;8.0000
247.0;8.0000
248.0;8.0000
249.0;1.3023
250.0;1.0076
251.0;8.0000
252.0;8.0000
253.0;8.0000
254.0;8.0000
255.0;0.4015
256.0;8.0000
257.0;0.6468
258.0;1.0083
259.0;8.0000
260.0;0.1578
261.0;-0.3912
262.0;0.6699
263.0;8.0000
264.0;1.6474
265.0;1.7841
266.0;0.0984
267.0;8.0000
268.0;8.0000
269.0;0.6851
270.0;8.0000
271.0;0.3037
272.0;0.5708
273.0;0.5344
274.0;8.0000
275.0;8.0000
276.0;0.4237
277.0;8.0000
278.0;1.0055
279.0;8.0000
280.0;1.0402
281.0;0.6636
282.0;1.0542
283.0;1.4837
284.0;1.5089
285.0;1.5196
286.0;1.5103
287.0;1.4767
288.0;1.4391
289.0;1.4127
290.0;1.3881
291.0;1.3638
292.0;1.3396
293.0;1.3196
294.0;1.2974
295.0;1.2825
296.0;1.2658
297.0;1.2530
298.0;1.2391
299.0;1.2332
300.0;1.2258
301.0;1.2210
302.0;1.2213
303.0;1.2174
304.0;1.2152
305.0;1.2127
306.0;1.2111
307.0;1.2050
308.0;1.2024
309.0;1.1935
310.0;1.1835
311.0;1.1740
312.0;1.1620
313.0;1.1473
314.0;1.1338
315.0;1.1178
316.0;1.1071
317.0;1.0903
318.0;1.0802
319.0;1.0723
320.0;1.0737
321.0;1.0678
322.0;1.0670
323.0;1.0658
324.0;1.0676
325.0;1.0698
326.0;1.0729
327.0;1.0762
328.0;1.0776
329.0;1.0826
330.0;1.0880
331.0;1.0923
332.0;1.0965
333.0;1.1046
334.0;1.1153
335.0;1.1290
336.0;1.1470
337.0;1.1656
338.0;1.1895
339.0;1.2163
340.0;1.2460
341.0;1.2829
342.0;1.3195
343.0;1.3597
344.0;1.4053
345.0;1.4514
346.0;1.4971
347.0;1.5467
348.0;1.5915
349.0;1.6341
350.0;1.6793
351.0;1.7108
352.0;1.7438
353.0;1.7716
354.0;1.7933
355.0;1.8191
356.0;1.8404
357.0;1.8660
358.0;1.8892
359.0;1.9242
360.0;1.9584
361.0;1.9898
362.0;2.0296
363.0;2.0691
364.0;2.1089
365.0;2.1463
366.0;2.1744
367.0;2.2030
368.0;2.2238
369.0;2.2446
370.0;2.2429
371.0;2.2634
372.0;2.2577
373.0;2.2777
374.0;2.2713
375.0;2.2567
376.0;2.2565
377.0;2.2449
378.0;2.2310
379.0;2.2258
380.0;2.2191
381.0;2.2121
382.0;2.2184
383.0;2.2291
384.0;2.2464
385.0;2.2742
386.0;2.3261
387.0;2.3970
388.0;2.4758
389.0;2.6026
390.0;2.7829
391.0;2.9429
392.0;3.1665
393.0;3.2940
394.0;3.4297
395.0;3.4475
396.0;3.4654
397.0;3.4651
398.0;3.4720
399.0;3.4887
400.0;3.5373
401.0;3.4518
402.0;3.4320
403.0;3.4443
404.0;3.5312
405.0;3.4345
406.0;3.4317
407.0;3.5563
408.0;3.4945
409.0;3.5133
410.0;3.4908
411.0;3.5194
412.0;3.5034
413.0;3.5261
414.0;3.4142
415.0;3.5020
416.0;3.4674
417.0;3.5241
418.0;3.4391
419.0;3.5302
420.0;3.4367
421.0;3.4621
422.0;3.4907
423.0;3.4306
424.0;3.4262
425.0;3.4828
426.0;3.4079
427.0;3.4218
428.0;3.3578
429.0;3.3986
430.0;3.3423
431.0;3.2482
432.0;2.9141
433.0;2.3664
434.0;1.8620
435.0;1.4550
436.0;1.1455
437.0;0.9141
438.0;0.7423
439.0;0.6140
440.0;0.5175
441.0;0.4445
442.0;0.3893
443.0;0.3481
444.0;0.3179
445.0;0.2954
446.0;0.2786
447.0;0.2661
448.0;0.2571
449.0;0.2506
450.0;0.2459
451.0;0.2427
452.0;0.2402
453.0;0.2386
454.0;0.2372
455.0;0.2358
456.0;0.2346
457.0;0.2332
458.0;0.2316
459.0;0.2298
460.0;0.2284
461.0;0.2265
462.0;0.2252
463.0;0.2239
464.0;0.2237
465.0;0.2244
466.0;0.2259
467.0;0.2283
468.0;0.2322
469.0;0.2373
470.0;0.2415
471.0;0.2524
472.0;0.2621
473.0;0.2733
474.0;0.2858
475.0;0.2992
476.0;0.3130
477.0;0.3264
478.0;0.3386
479.0;0.3486
480.0;0.3561
481.0;0.3610
482.0;0.3634
483.0;0.3636
484.0;0.3620
485.0;0.3590
486.0;0.3555
487.0;0.3517
488.0;0.3484
489.0;0.3465
490.0;0.3470
491.0;0.3503
492.0;0.3575
493.0;0.3693
494.0;0.3868
495.0;0.4117
496.0;0.4459
497.0;0.4908
498.0;0.5465
499.0;0.6119
500.0;0.6854
501.0;0.7645
502.0;0.8495
503.0;0.9387
504.0;1.0299
505.0;1.1202
506.0;1.2092
507.0;1.2959
508.0;1.3815
509.0;1.4651
510.0;1.5444
511.0;1.6154
512.0;1.6721
513.0;1.7110
514.0;1.7281
515.0;1.7268
516.0;1.7067
517.0;1.6688
518.0;1.6135
519.0;1.5424
520.0;1.4559
521.0;1.3586
522.0;1.2540
523.0;1.1454
524.0;1.0371
525.0;0.9318
526.0;0.8327
527.0;0.7426
528.0;0.6633
529.0;0.5942
530.0;0.5338
531.0;0.4822
532.0;0.4399
533.0;0.4072
534.0;0.3847
535.0;0.3726
536.0;0.3717
537.0;0.3817
538.0;0.4028
539.0;0.4338
540.0;0.4728
541.0;0.5170
542.0;0.5637
543.0;0.6096
544.0;0.6532
545.0;0.6920
546.0;0.7233
547.0;0.7447
548.0;0.7551
549.0;0.7541
550.0;0.7422
551.0;0.7201
552.0;0.6888
553.0;0.6493
554.0;0.6039
555.0;0.5556
556.0;0.5071
557.0;0.4600
558.0;0.4142
559.0;0.3711
560.0;0.3320
561.0;0.2970
562.0;0.2667
563.0;0.2408
564.0;0.2192
565.0;0.2011
566.0;0.1865
567.0;0.1747
568.0;0.1657
569.0;0.1594
570.0;0.1555
571.0;0.1541
572.0;0.1552
573.0;0.1588
574.0;0.1650
575.0;0.1735
576.0;0.1838
577.0;0.1955
578.0;0.2090
579.0;0.2242
580.0;0.2411
581.0;0.2605
582.0;0.2830
583.0;0.3098
584.0;0.3413
585.0;0.3770
586.0;0.4140
587.0;0.4487
588.0;0.4773
589.0;0.4978
590.0;0.5100
591.0;0.5151
592.0;0.5150
593.0;0.5109
594.0;0.5035
595.0;0.4931
596.0;0.4797
597.0;0.4625
598.0;0.4420
599.0;0.4178
600.0;0.3905
601.0;0.3617
602.0;0.3330
603.0;0.3060
604.0;0.2820
605.0;0.2612
606.0;0.2431
607.0;0.2268
608.0;0.2118
609.0;0.1976
610.0;0.1842
611.0;0.1715
612.0;0.1596
613.0;0.1484
614.0;0.1378
615.0;0.1277
616.0;0.1184
617.0;0.1099
618.0;0.1024
619.0;0.0960
620.0;0.0906
621.0;0.0862
622.0;0.0829
623.0;0.0804
624.0;0.0789
625.0;0.0784
626.0;0.0785
627.0;0.0796
628.0;0.0815
629.0;0.0846
630.0;0.0886
631.0;0.0938
632.0;0.1001
633.0;0.1076
634.0;0.1164
635.0;0.1266
636.0;0.1379
637.0;0.1508
638.0;0.1658
639.0;0.1836
640.0;0.2051
641.0;0.2312
642.0;0.2614
643.0;0.2947
644.0;0.3284
645.0;0.3594
646.0;0.3853
647.0;0.4049
648.0;0.4182
649.0;0.4254
650.0;0.4265
651.0;0.4209
652.0;0.4077
653.0;0.3869
654.0;0.3593
655.0;0.3264
656.0;0.2907
657.0;0.2546
658.0;0.2205
659.0;0.1896
660.0;0.1629
661.0;0.1403
662.0;0.1215
663.0;0.1059
664.0;0.0928
665.0;0.0819
666.0;0.0728
667.0;0.0653
668.0;0.0592
669.0;0.0542
670.0;0.0500
671.0;0.0466
672.0;0.0437
673.0;0.0413
674.0;0.0394
675.0;0.0378
676.0;0.0365
677.0;0.0353
678.0;0.0345
679.0;0.0336
680.0;0.0330
681.0;0.0324
682.0;0.0319
683.0;0.0315
684.0;0.0310
685.0;0.0307
686.0;0.0304
687.0;0.0301
688.0;0.0299
689.0;0.0296
690.0;0.0294
691.0;0.0292
692.0;0.0290
693.0;0.0287
694.0;0.0286
695.0;0.0284
696.0;0.0282
697.0;0.0280
698.0;0.0279
699.0;0.0277
700.0;0.0276
701.0;0.0274
702.0;0.0272
703.0;0.0271
704.0;0.0270
705.0;0.0270
706.0;0.0268
707.0;0.0266
708.0;0.0265
709.0;0.0264
710.0;0.0262
711.0;0.0262
712.0;0.0260
713.0;0.0259
714.0;0.0257
715.0;0.0256
716.0;0.0255
717.0;0.0253
718.0;0.0253
719.0;0.0252
720.0;0.0250
721.0;0.0249
722.0;0.0248
723.0;0.0247
724.0;0.0245
725.0;0.0245
726.0;0.0244
727.0;0.0243
728.0;0.0242
729.0;0.0242
730.0;0.0240
731.0;0.0240
732.0;0.0238
733.0;0.0238
734.0;0.0237
735.0;0.0237
736.0;0.0236
737.0;0.0236
738.0;0.0235
739.0;0.0234
740.0;0.0233
741.0;0.0232
742.0;0.0232
743.0;0.0230
744.0;0.0229
745.0;0.0227
746.0;0.0226
747.0;0.0224
748.0;0.0223
749.0;0.0222
750.0;0.0220
751.0;0.0219
752.0;0.0218
753.0;0.0217
754.0;0.0215
755.0;0.0215
756.0;0.0214
757.0;0.0212
758.0;0.0211
759.0;0.0211
760.0;0.0209
761.0;0.0208
762.0;0.0207
763.0;0.0206
764.0;0.0205
765.0;0.0204
766.0;0.0203
767.0;0.0203
768.0;0.0201
769.0;0.0200
770.0;0.0200
771.0;0.0198
772.0;0.0197
773.0;0.0197
774.0;0.0195
775.0;0.0195
776.0;0.0194
777.0;0.0193
778.0;0.0193
779.0;0.0191
780.0;0.0190
781.0;0.0190
782.0;0.0188
783.0;0.0187
784.0;0.0187
785.0;0.0186
786.0;0.0186
787.0;0.0185
788.0;0.0184
789.0;0.0184
790.0;0.0183
791.0;0.0182
792.0;0.0182
793.0;0.0182
794.0;0.0180
795.0;0.0180
796.0;0.0179
797.0;0.0179
798.0;0.0178
799.0;0.0178
800.0;0.0177
801.0;0.0177
802.0;0.0177
803.0;0.0176
804.0;0.0175
805.0;0.0175
806.0;0.0175
807.0;0.0174
808.0;0.0173
809.0;0.0173
810.0;0.0173
811.0;0.0172
812.0;0.0171
813.0;0.0172
814.0;0.0171
815.0;0.0170
816.0;0.0170
817.0;0.0170
818.0;0.0170
819.0;0.0169
820.0;0.0169
821.0;0.0169
822.0;0.0168
823.0;0.0167
824.0;0.0165
825.0;0.0163
826.0;0.0162
827.0;0.0160
828.0;0.0159
829.0;0.0158
830.0;0.0159
831.0;0.0159
832.0;0.0160
833.0;0.0161
834.0;0.0162
835.0;0.0163
836.0;0.0164
837.0;0.0165
838.0;0.0166
839.0;0.0167
840.0;0.0167
841.0;0.0167
842.0;0.0167
843.0;0.0166
844.0;0.0166
845.0;0.0165
846.0;0.0164
847.0;0.0164
848.0;0.0164
849.0;0.0164
850.0;0.0163
851.0;0.0162
852.0;0.0163
853.0;0.0162
854.0;0.0162
855.0;0.0161
856.0;0.0161
857.0;0.0161
858.0;0.0161
859.0;0.0160
860.0;0.0160
861.0;0.0160
862.0;0.0160
863.0;0.0159
864.0;0.0160
865.0;0.0159
866.0;0.0159
867.0;0.0159
868.0;0.0159
869.0;0.0159
870.0;0.0159
871.0;0.0158
872.0;0.0158
873.0;0.0157
874.0;0.0157
875.0;0.0156
876.0;0.0155
877.0;0.0155
878.0;0.0153
879.0;0.0152
880.0;0.0152
881.0;0.0152
882.0;0.0152
883.0;0.0152
884.0;0.0152
885.0;0.0152
886.0;0.0152
887.0;0.0152
888.0;0.0152
889.0;0.0152
890.0;0.0152
891.0;0.0152
892.0;0.0152
893.0;0.0152
894.0;0.0152
895.0;0.0152
896.0;0.0151
897.0;0.0151
898.0;0.0150
899.0;0.0151
900.0;0.0151
901.0;0.0151
902.0;0.0151
903.0;0.0150
904.0;0.0150
905.0;0.0150
906.0;0.0150
907.0;0.0149
908.0;0.0149
909.0;0.0148
910.0;0.0148
911.0;0.0149
912.0;0.0148
913.0;0.0148
914.0;0.0147
915.0;0.0147
916.0;0.0147
917.0;0.0146
918.0;0.0146
919.0;0.0146
920.0;0.0145
921.0;0.0145
922.0;0.0145
923.0;0.0144
924.0;0.0145
925.0;0.0145
926.0;0.0145
927.0;0.0145
928.0;0.0144
929.0;0.0144
930.0;0.0145
931.0;0.0144
932.0;0.0144
933.0;0.0144
934.0;0.0144
935.0;0.0144
936.0;0.0143
937.0;0.0144
938.0;0.0143
939.0;0.0143
940.0;0.0143
941.0;0.0143
942.0;0.0143
943.0;0.0143
944.0;0.0142
945.0;0.0142
946.0;0.0142
947.0;0.0143
948.0;0.0142
949.0;0.0142
950.0;0.0142
951.0;0.0142
952.0;0.0141
953.0;0.0141
954.0;0.0141
955.0;0.0141
956.0;0.0140
957.0;0.0141
958.0;0.0140
959.0;0.0140
960.0;0.0140
961.0;0.0140
962.0;0.0140
963.0;0.0140
964.0;0.0140
965.0;0.0140
966.0;0.0139
967.0;0.0139
968.0;0.0139
969.0;0.0139
970.0;0.0139
971.0;0.0139
972.0;0.0138
973.0;0.0139
974.0;0.0139
975.0;0.0139
976.0;0.0139
977.0;0.0139
978.0;0.0139
979.0;0.0138
980.0;0.0138
981.0;0.0138
982.0;0.0138
983.0;0.0137
984.0;0.0139
985.0;0.0138
986.0;0.0138
987.0;0.0137
988.0;0.0138
989.0;0.0138
990.0;0.0138
991.0;0.0137
992.0;0.0137
993.0;0.0137
994.0;0.0137
995.0;0.0137
996.0;0.0137
997.0;0.0137
998.0;0.0136
999.0;0.0137
1000.0;0.0137
1001.0;0.0136
1002.0;0.0137
1003.0;0.0136
1004.0;0.0136
1005.0;0.0136
1006.0;0.0137
1007.0;0.0137
1008.0;0.0137
1009.0;0.0137
1010.0;0.0137
1011.0;0.0136
1012.0;0.0136
1013.0;0.0136
1014.0;0.0136
1015.0;0.0136
1016.0;0.0135
1017.0;0.0136
1018.0;0.0135
1019.0;0.0136
1020.0;0.0135
1021.0;0.0136
1022.0;0.0136
1023.0;0.0135
1024.0;0.0135
1025.0;0.0135
1026.0;0.0135
1027.0;0.0135
1028.0;0.0135
1029.0;0.0135
1030.0;0.0135
1031.0;0.0135
1032.0;0.0135
1033.0;0.0136
1034.0;0.0135
1035.0;0.0136
1036.0;0.0135
1037.0;0.0136
1038.0;0.0135
1039.0;0.0135
1040.0;0.0135
1041.0;0.0136
1042.0;0.0136
1043.0;0.0136
1044.0;0.0136
1045.0;0.0136
1046.0;0.0136
1047.0;0.0136
1048.0;0.0137
1049.0;0.0136
1050.0;0.0136
1051.0;0.0137
1052.0;0.0136
1053.0;0.0136
1054.0;0.0137
1055.0;0.0136
1056.0;0.0136
1057.0;0.0136
1058.0;0.0136
1059.0;0.0137
1060.0;0.0137
1061.0;0.0137
1062.0;0.0137
1063.0;0.0137
1064.0;0.0138
1065.0;0.0137
1066.0;0.0136
1067.0;0.0135
1068.0;0.0136
1069.0;0.0135
1070.0;0.0135
1071.0;0.0135
1072.0;0.0135
1073.0;0.0135
1074.0;0.0134
1075.0;0.0136
1076.0;0.0134
1077.0;0.0135
1078.0;0.0135
1079.0;0.0136
1080.0;0.0134
1081.0;0.0137
1082.0;0.0136
1083.0;0.0135
1084.0;0.0135
1085.0;0.0136
1086.0;0.0135
1087.0;0.0136
1088.0;0.0137
1089.0;0.0136
1090.0;0.0135
1091.0;0.0136
1092.0;0.0135
1093.0;0.0134
1094.0;0.0137
1095.0;0.0136
1096.0;0.0134
1097.0;0.0134
1098.0;0.0134
1099.0;0.0135
1100.0;0.0134
